title:127 - b, recorded:24.12.18 15.36.12, timestamp started:2018-12-24T15:36:12.984+02:00;1545658572.984, sampling:128, subject:, labels:COUNTER INTERPOLATED AF3 F7 F3 FC5 T7 P7 O1 O2 P8 T8 FC6 F4 F8 AF4 RAW_CQ GYROX GYROY MARKER MARKER_HARDWARE SYNC TIME_STAMP_s TIME_STAMP_ms TimeStamp CQ_AF3 CQ_F7 CQ_F3 CQ_FC5 CQ_T7 CQ_P7 CQ_O1 CQ_O2 CQ_P8 CQ_T8 CQ_FC6 CQ_F4 CQ_F8 CQ_AF4 CQ_CMS CQ_DRL, chan:40, samples:2634, units:emotiv
105.000000, 0.000000, 4172.307617, 4142.051270, 4169.743652, 4158.461426, 4160.000000, 4181.538574, 4181.538574, 4175.384277, 4175.384277, 4126.666504, 4165.641113, 4193.333008, 4126.666504, 4198.974121, 3102.000000, 8146.000000, 7842.000000, 1.000000, 4.000000, 0.000000, 0.000000, 0.000000, 1545658572.984000, 4.000000, 4.000000, 4.000000, 4.000000, 4.000000, 4.000000, 4.000000, 4.000000, 4.000000, 4.000000, 4.000000, 4.000000, 4.000000, 4.000000, 4.000000, 4.000000
106.000000, 0.000000, 4160.000000, 4124.102539, 4160.000000, 4146.666504, 4153.333008, 4174.871582, 4174.871582, 4165.641113, 4163.589844, 4123.589844, 4156.922852, 4188.717773, 4113.333008, 4193.333008, 3545.000000, 8146.000000, 7842.000000, 0.000000, 0.000000, 0.000000, 0.000000, 7.692307, 1545658572.991692, 4.000000, 4.000000, 4.000000, 4.000000, 4.000000, 4.000000, 4.000000, 4.000000, 4.000000, 4.000000, 4.000000, 4.000000, 4.000000, 4.000000, 4.000000, 4.000000
107.000000, 0.000000, 4150.256348, 4119.487305, 4146.666504, 4134.358887, 4143.589844, 4163.589844, 4182.051270, 4174.871582, 4155.384277, 4116.922852, 4144.615234, 4177.948730, 4101.538574, 4177.436035, 3206.000000, 8126.000000, 7886.000000, 0.000000, 0.000000, 0.000000, 0.000000, 15.384628, 1545658572.999384, 4.000000, 4.000000, 4.000000, 4.000000, 4.000000, 4.000000, 4.000000, 4.000000, 4.000000, 4.000000, 4.000000, 4.000000, 4.000000, 4.000000, 4.000000, 4.000000
108.000000, 0.000000, 4176.410156, 4148.205078, 4164.102539, 4157.948730, 4152.820313, 4169.230469, 4194.871582, 4191.281738, 4172.820313, 4124.615234, 4165.127930, 4192.307617, 4128.717773, 4196.922852, 3511.000000, 8126.000000, 7886.000000, 0.000000, 0.000000, 0.000000, 0.000000, 23.076935, 1545658573.007077, 4.000000, 4.000000, 4.000000, 4.000000, 4.000000, 4.000000, 4.000000, 4.000000, 4.000000, 4.000000, 4.000000, 4.000000, 4.000000, 4.000000, 4.000000, 4.000000
109.000000, 0.000000, 4189.743652, 4155.384277, 4172.307617, 4166.153809, 4150.769043, 4166.666504, 4181.025391, 4183.589844, 4169.230469, 4123.589844, 4168.717773, 4200.512695, 4141.538574, 4215.897461, 3102.000000, 8130.000000, 7897.000000, 0.000000, 0.000000, 0.000000, 0.000000, 31.282059, 1545658573.015282, 4.000000, 4.000000, 4.000000, 4.000000, 4.000000, 4.000000, 4.000000, 4.000000, 4.000000, 4.000000, 4.000000, 4.000000, 4.000000, 4.000000, 4.000000, 4.000000
110.000000, 0.000000, 4182.051270, 4142.051270, 4165.127930, 4151.794922, 4139.487305, 4158.461426, 4176.410156, 4191.794922, 4156.410156, 4114.871582, 4152.307617, 4195.384277, 4127.179199, 4212.820313, 3545.000000, 8130.000000, 7897.000000, 0.000000, 0.000000, 0.000000, 0.000000, 38.974365, 1545658573.022974, 4.000000, 4.000000, 4.000000, 4.000000, 4.000000, 4.000000, 4.000000, 4.000000, 4.000000, 4.000000, 4.000000, 4.000000, 4.000000, 4.000000, 4.000000, 4.000000
111.000000, 0.000000, 4195.384277, 4159.487305, 4176.922852, 4162.563965, 4150.256348, 4169.743652, 4189.230469, 4202.563965, 4166.153809, 4123.076660, 4165.127930, 4208.205078, 4142.051270, 4226.153809, 3206.000000, 8153.000000, 7895.000000, 0.000000, 0.000000, 0.000000, 0.000000, 46.666656, 1545658573.030667, 4.000000, 4.000000, 4.000000, 4.000000, 4.000000, 4.000000, 4.000000, 4.000000, 4.000000, 4.000000, 4.000000, 4.000000, 4.000000, 4.000000, 4.000000, 4.000000
112.000000, 0.000000, 4207.692383, 4181.025391, 4182.563965, 4177.948730, 4162.563965, 4176.922852, 4182.051270, 4183.076660, 4168.205078, 4126.153809, 4177.436035, 4213.846191, 4160.000000, 4238.461426, 3511.000000, 8153.000000, 7895.000000, 0.000000, 0.000000, 0.000000, 0.000000, 54.358978, 1545658573.038359, 4.000000, 4.000000, 4.000000, 4.000000, 4.000000, 4.000000, 4.000000, 4.000000, 4.000000, 4.000000, 4.000000, 4.000000, 4.000000, 4.000000, 4.000000, 4.000000
113.000000, 0.000000, 4197.948730, 4174.358887, 4167.692383, 4169.230469, 4153.333008, 4169.230469, 4165.641113, 4164.615234, 4152.307617, 4108.717773, 4155.897461, 4198.974121, 4137.436035, 4222.563965, 3102.000000, 8166.000000, 7912.000000, 0.000000, 0.000000, 0.000000, 0.000000, 62.051300, 1545658573.046051, 4.000000, 4.000000, 4.000000, 4.000000, 4.000000, 4.000000, 4.000000, 4.000000, 4.000000, 4.000000, 4.000000, 4.000000, 4.000000, 4.000000, 4.000000, 4.000000
114.000000, 0.000000, 4197.948730, 4168.205078, 4166.153809, 4166.666504, 4150.256348, 4161.538574, 4166.666504, 4163.589844, 4150.769043, 4105.641113, 4146.153809, 4197.948730, 4118.461426, 4215.384277, 3545.000000, 8166.000000, 7912.000000, 0.000000, 0.000000, 0.000000, 0.000000, 69.743591, 1545658573.053744, 4.000000, 4.000000, 4.000000, 4.000000, 4.000000, 4.000000, 4.000000, 4.000000, 4.000000, 4.000000, 4.000000, 4.000000, 4.000000, 4.000000, 4.000000, 4.000000
115.000000, 0.000000, 4199.487305, 4172.307617, 4171.794922, 4170.256348, 4155.897461, 4155.897461, 4168.717773, 4166.153809, 4164.102539, 4114.871582, 4153.846191, 4204.615234, 4121.025391, 4221.025391, 3206.000000, 8199.000000, 7941.000000, 0.000000, 0.000000, 0.000000, 0.000000, 77.948730, 1545658573.061949, 4.000000, 4.000000, 4.000000, 4.000000, 4.000000, 4.000000, 4.000000, 4.000000, 4.000000, 4.000000, 4.000000, 4.000000, 4.000000, 4.000000, 4.000000, 4.000000
116.000000, 0.000000, 4191.794922, 4168.717773, 4169.743652, 4170.256348, 4158.974121, 4162.563965, 4171.794922, 4178.974121, 4168.717773, 4113.846191, 4147.692383, 4203.076660, 4121.025391, 4221.025391, 3511.000000, 8199.000000, 7941.000000, 0.000000, 0.000000, 0.000000, 0.000000, 85.641022, 1545658573.069641, 4.000000, 4.000000, 4.000000, 4.000000, 4.000000, 4.000000, 4.000000, 4.000000, 4.000000, 4.000000, 4.000000, 4.000000, 4.000000, 4.000000, 4.000000, 4.000000
117.000000, 0.000000, 4187.692383, 4157.436035, 4168.205078, 4165.641113, 4156.410156, 4169.743652, 4180.000000, 4183.589844, 4156.410156, 4107.179199, 4135.897461, 4200.512695, 4116.410156, 4221.538574, 3102.000000, 8214.000000, 7977.000000, 0.000000, 0.000000, 0.000000, 0.000000, 93.333344, 1545658573.077333, 4.000000, 4.000000, 4.000000, 4.000000, 4.000000, 4.000000, 4.000000, 4.000000, 4.000000, 4.000000, 4.000000, 4.000000, 4.000000, 4.000000, 4.000000, 4.000000
118.000000, 0.000000, 4189.230469, 4152.307617, 4167.692383, 4156.410156, 4152.307617, 4160.000000, 4173.846191, 4171.281738, 4145.127930, 4106.153809, 4136.922852, 4200.512695, 4117.436035, 4226.666504, 3545.000000, 8214.000000, 7977.000000, 0.000000, 0.000000, 0.000000, 0.000000, 101.025635, 1545658573.085026, 4.000000, 4.000000, 4.000000, 4.000000, 4.000000, 4.000000, 4.000000, 4.000000, 4.000000, 4.000000, 4.000000, 4.000000, 4.000000, 4.000000, 4.000000, 4.000000
119.000000, 0.000000, 4195.897461, 4162.051270, 4168.717773, 4161.025391, 4160.000000, 4153.333008, 4173.333008, 4183.076660, 4163.589844, 4117.436035, 4148.205078, 4208.717773, 4130.256348, 4236.410156, 3206.000000, 8235.000000, 8067.000000, 0.000000, 0.000000, 0.000000, 0.000000, 108.717957, 1545658573.092718, 4.000000, 4.000000, 4.000000, 4.000000, 4.000000, 4.000000, 4.000000, 4.000000, 4.000000, 4.000000, 4.000000, 4.000000, 4.000000, 4.000000, 4.000000, 4.000000
120.000000, 0.000000, 4199.487305, 4169.230469, 4172.307617, 4173.333008, 4171.281738, 4162.563965, 4187.692383, 4203.076660, 4179.487305, 4128.205078, 4154.358887, 4214.358887, 4141.538574, 4244.615234, 3511.000000, 8235.000000, 8067.000000, 0.000000, 0.000000, 0.000000, 0.000000, 116.410248, 1545658573.100410, 4.000000, 4.000000, 4.000000, 4.000000, 4.000000, 4.000000, 4.000000, 4.000000, 4.000000, 4.000000, 4.000000, 4.000000, 4.000000, 4.000000, 4.000000, 4.000000
121.000000, 0.000000, 4192.820313, 4166.666504, 4170.769043, 4174.871582, 4170.256348, 4171.281738, 4191.281738, 4211.281738, 4175.384277, 4127.179199, 4151.281738, 4210.256348, 4145.127930, 4245.641113, 3102.000000, 8242.000000, 8111.000000, 0.000000, 0.000000, 0.000000, 0.000000, 124.615387, 1545658573.108615, 4.000000, 4.000000, 4.000000, 4.000000, 4.000000, 4.000000, 4.000000, 4.000000, 4.000000, 4.000000, 4.000000, 4.000000, 4.000000, 4.000000, 4.000000, 4.000000
122.000000, 0.000000, 4194.358887, 4169.743652, 4171.281738, 4176.922852, 4168.717773, 4178.461426, 4196.922852, 4234.358887, 4190.256348, 4134.358887, 4152.820313, 4211.794922, 4166.153809, 4244.615234, 3545.000000, 8242.000000, 8111.000000, 0.000000, 0.000000, 0.000000, 0.000000, 132.307709, 1545658573.116308, 4.000000, 4.000000, 4.000000, 4.000000, 4.000000, 4.000000, 4.000000, 4.000000, 4.000000, 4.000000, 4.000000, 4.000000, 4.000000, 4.000000, 4.000000, 4.000000
123.000000, 0.000000, 4208.205078, 4177.948730, 4180.000000, 4190.769043, 4181.538574, 4194.358887, 4216.922852, 4238.461426, 4215.384277, 4156.922852, 4162.051270, 4222.051270, 4206.153809, 4251.281738, 3206.000000, 8262.000000, 8158.000000, 0.000000, 0.000000, 0.000000, 0.000000, 140.000000, 1545658573.124000, 4.000000, 4.000000, 4.000000, 4.000000, 4.000000, 4.000000, 4.000000, 4.000000, 4.000000, 4.000000, 4.000000, 4.000000, 4.000000, 4.000000, 4.000000, 4.000000
124.000000, 0.000000, 4202.563965, 4173.333008, 4178.461426, 4188.717773, 4184.615234, 4202.051270, 4212.307617, 4199.487305, 4197.948730, 4153.333008, 4158.461426, 4220.000000, 4221.025391, 4250.256348, 3511.000000, 8262.000000, 8158.000000, 0.000000, 0.000000, 0.000000, 0.000000, 147.692322, 1545658573.131692, 4.000000, 4.000000, 4.000000, 4.000000, 4.000000, 4.000000, 4.000000, 4.000000, 4.000000, 4.000000, 4.000000, 4.000000, 4.000000, 4.000000, 4.000000, 4.000000
125.000000, 0.000000, 4185.641113, 4165.641113, 4167.692383, 4174.358887, 4173.846191, 4193.333008, 4191.794922, 4174.358887, 4165.127930, 4128.205078, 4148.205078, 4211.794922, 4216.922852, 4237.436035, 3102.000000, 8269.000000, 8190.000000, 0.000000, 0.000000, 0.000000, 0.000000, 155.384613, 1545658573.139385, 4.000000, 4.000000, 4.000000, 4.000000, 4.000000, 4.000000, 4.000000, 4.000000, 4.000000, 4.000000, 4.000000, 4.000000, 4.000000, 4.000000, 4.000000, 4.000000
126.000000, 0.000000, 4186.153809, 4170.256348, 4168.717773, 4174.871582, 4172.820313, 4185.641113, 4194.871582, 4190.256348, 4176.922852, 4130.769043, 4152.820313, 4215.384277, 4239.487305, 4235.384277, 3545.000000, 8269.000000, 8190.000000, 0.000000, 0.000000, 0.000000, 0.000000, 163.589752, 1545658573.147590, 4.000000, 4.000000, 4.000000, 4.000000, 4.000000, 4.000000, 4.000000, 4.000000, 4.000000, 4.000000, 4.000000, 4.000000, 4.000000, 4.000000, 4.000000, 4.000000
127.000000, 0.000000, 4183.589844, 4167.179199, 4169.743652, 4170.769043, 4174.871582, 4182.051270, 4196.410156, 4198.974121, 4188.205078, 4142.563965, 4156.410156, 4214.871582, 4256.922852, 4233.846191, 56.000000, 8302.000000, 8249.000000, 0.000000, 0.000000, 0.000000, 0.000000, 171.282043, 1545658573.155282, 4.000000, 4.000000, 4.000000, 4.000000, 4.000000, 4.000000, 4.000000, 4.000000, 4.000000, 4.000000, 4.000000, 4.000000, 4.000000, 4.000000, 4.000000, 4.000000
0.000000, 0.000000, 4163.076660, 4150.256348, 4154.358887, 4152.820313, 4167.179199, 4179.487305, 4181.538574, 4202.563965, 4172.307617, 4127.179199, 4140.512695, 4201.025391, 4237.436035, 4216.922852, 3324.000000, 8302.000000, 8249.000000, 0.000000, 0.000000, 0.000000, 0.000000, 178.974365, 1545658573.162974, 4.000000, 4.000000, 4.000000, 4.000000, 4.000000, 4.000000, 4.000000, 4.000000, 4.000000, 4.000000, 4.000000, 4.000000, 4.000000, 4.000000, 4.000000, 4.000000
1.000000, 0.000000, 4153.846191, 4144.615234, 4147.179199, 4153.333008, 4163.589844, 4180.512695, 4185.127930, 4209.230469, 4170.256348, 4117.948730, 4129.230469, 4194.871582, 4231.281738, 4206.666504, 3509.000000, 8317.000000, 8267.000000, 0.000000, 0.000000, 0.000000, 0.000000, 186.666656, 1545658573.170667, 4.000000, 4.000000, 4.000000, 4.000000, 4.000000, 4.000000, 4.000000, 4.000000, 4.000000, 4.000000, 4.000000, 4.000000, 4.000000, 4.000000, 4.000000, 4.000000
2.000000, 0.000000, 4168.717773, 4154.871582, 4164.615234, 4172.820313, 4171.281738, 4183.076660, 4197.948730, 4204.102539, 4185.127930, 4135.384277, 4144.102539, 4208.717773, 4262.051270, 4222.563965, 3303.000000, 8317.000000, 8267.000000, 0.000000, 0.000000, 0.000000, 0.000000, 194.358978, 1545658573.178359, 4.000000, 4.000000, 4.000000, 4.000000, 4.000000, 4.000000, 4.000000, 4.000000, 4.000000, 4.000000, 4.000000, 4.000000, 4.000000, 4.000000, 4.000000, 4.000000
3.000000, 0.000000, 4176.410156, 4156.922852, 4175.384277, 4173.333008, 4166.153809, 4178.461426, 4192.307617, 4221.538574, 4193.846191, 4142.051270, 4157.436035, 4220.512695, 4275.384277, 4234.871582, 3571.000000, 8350.000000, 8303.000000, 0.000000, 0.000000, 0.000000, 0.000000, 202.051270, 1545658573.186051, 4.000000, 4.000000, 4.000000, 4.000000, 4.000000, 4.000000, 4.000000, 4.000000, 4.000000, 4.000000, 4.000000, 4.000000, 4.000000, 4.000000, 4.000000, 4.000000
4.000000, 0.000000, 4169.230469, 4150.256348, 4170.256348, 4166.153809, 4155.897461, 4178.974121, 4176.922852, 4227.179199, 4185.127930, 4135.897461, 4148.717773, 4216.410156, 4261.025391, 4226.666504, 3385.000000, 8350.000000, 8303.000000, 0.000000, 0.000000, 0.000000, 0.000000, 210.256409, 1545658573.194256, 4.000000, 4.000000, 4.000000, 4.000000, 4.000000, 4.000000, 4.000000, 4.000000, 4.000000, 4.000000, 4.000000, 4.000000, 4.000000, 4.000000, 4.000000, 4.000000
5.000000, 0.000000, 4168.717773, 4155.897461, 4170.256348, 4171.794922, 4164.615234, 4187.179199, 4175.897461, 4191.794922, 4177.436035, 4137.948730, 4147.692383, 4215.897461, 4256.922852, 4220.000000, 3477.000000, 8363.000000, 8312.000000, 0.000000, 0.000000, 0.000000, 0.000000, 217.948730, 1545658573.201949, 4.000000, 4.000000, 4.000000, 4.000000, 4.000000, 4.000000, 4.000000, 4.000000, 4.000000, 4.000000, 4.000000, 4.000000, 4.000000, 4.000000, 4.000000, 4.000000
6.000000, 0.000000, 4169.230469, 4155.897461, 4170.769043, 4167.179199, 4170.769043, 4185.127930, 4195.897461, 4193.846191, 4186.666504, 4138.461426, 4153.846191, 4217.436035, 4255.384277, 4218.461426, 3403.000000, 8363.000000, 8312.000000, 0.000000, 0.000000, 0.000000, 0.000000, 225.641022, 1545658573.209641, 4.000000, 4.000000, 4.000000, 4.000000, 4.000000, 4.000000, 4.000000, 4.000000, 4.000000, 4.000000, 4.000000, 4.000000, 4.000000, 4.000000, 4.000000, 4.000000
7.000000, 0.000000, 4172.307617, 4151.281738, 4171.794922, 4167.692383, 4171.794922, 4184.102539, 4206.666504, 4221.538574, 4195.384277, 4141.538574, 4154.358887, 4217.436035, 4247.692383, 4222.051270, 3217.000000, 8394.000000, 8321.000000, 0.000000, 0.000000, 0.000000, 0.000000, 233.333344, 1545658573.217333, 4.000000, 4.000000, 4.000000, 4.000000, 4.000000, 4.000000, 4.000000, 4.000000, 4.000000, 4.000000, 4.000000, 4.000000, 4.000000, 4.000000, 4.000000, 4.000000
8.000000, 0.000000, 4184.615234, 4169.743652, 4185.127930, 4187.179199, 4186.666504, 4195.897461, 4190.256348, 4202.051270, 4189.230469, 4153.846191, 4163.589844, 4227.179199, 4253.846191, 4234.871582, 3409.000000, 8394.000000, 8321.000000, 0.000000, 0.000000, 0.000000, 0.000000, 241.025635, 1545658573.225026, 4.000000, 4.000000, 4.000000, 4.000000, 4.000000, 4.000000, 4.000000, 4.000000, 4.000000, 4.000000, 4.000000, 4.000000, 4.000000, 4.000000, 4.000000, 4.000000
9.000000, 0.000000, 4191.794922, 4182.051270, 4189.230469, 4186.666504, 4186.666504, 4198.974121, 4176.410156, 4181.538574, 4183.076660, 4153.846191, 4172.307617, 4232.307617, 4261.025391, 4236.922852, 3228.000000, 8409.000000, 8336.000000, 0.000000, 0.000000, 0.000000, 0.000000, 248.717957, 1545658573.232718, 4.000000, 4.000000, 4.000000, 4.000000, 4.000000, 4.000000, 4.000000, 4.000000, 4.000000, 4.000000, 4.000000, 4.000000, 4.000000, 4.000000, 4.000000, 4.000000
10.000000, 0.000000, 4185.127930, 4168.205078, 4173.333008, 4167.692383, 4169.230469, 4183.076660, 4176.410156, 4198.461426, 4179.487305, 4138.461426, 4161.025391, 4222.051270, 4249.230469, 4224.102539, 3537.000000, 8409.000000, 8336.000000, 0.000000, 0.000000, 0.000000, 0.000000, 256.923065, 1545658573.240923, 4.000000, 4.000000, 4.000000, 4.000000, 4.000000, 4.000000, 4.000000, 4.000000, 4.000000, 4.000000, 4.000000, 4.000000, 4.000000, 4.000000, 4.000000, 4.000000
11.000000, 0.000000, 4181.025391, 4161.025391, 4166.153809, 4170.256348, 4175.897461, 4173.846191, 4168.717773, 4197.948730, 4172.820313, 4132.820313, 4153.846191, 4213.846191, 4237.948730, 4219.487305, 3239.000000, 8433.000000, 8390.000000, 0.000000, 0.000000, 0.000000, 0.000000, 264.615387, 1545658573.248616, 4.000000, 4.000000, 4.000000, 4.000000, 4.000000, 4.000000, 4.000000, 4.000000, 4.000000, 4.000000, 4.000000, 4.000000, 4.000000, 4.000000, 4.000000, 4.000000
12.000000, 0.000000, 4189.743652, 4170.769043, 4176.410156, 4184.615234, 4190.769043, 4184.102539, 4172.307617, 4198.461426, 4177.948730, 4142.563965, 4165.127930, 4220.000000, 4241.025391, 4226.666504, 3513.000000, 8433.000000, 8390.000000, 0.000000, 0.000000, 0.000000, 0.000000, 272.307678, 1545658573.256308, 4.000000, 4.000000, 4.000000, 4.000000, 4.000000, 4.000000, 4.000000, 4.000000, 4.000000, 4.000000, 4.000000, 4.000000, 4.000000, 4.000000, 4.000000, 4.000000
13.000000, 0.000000, 4202.051270, 4182.563965, 4186.666504, 4194.871582, 4187.179199, 4198.974121, 4199.487305, 4222.051270, 4196.922852, 4154.358887, 4178.974121, 4234.358887, 4248.717773, 4237.948730, 3134.000000, 8442.000000, 8407.000000, 0.000000, 0.000000, 0.000000, 0.000000, 280.000000, 1545658573.264000, 4.000000, 4.000000, 4.000000, 4.000000, 4.000000, 4.000000, 4.000000, 4.000000, 4.000000, 4.000000, 4.000000, 4.000000, 4.000000, 4.000000, 4.000000, 4.000000
14.000000, 0.000000, 4207.179199, 4187.692383, 4189.230469, 4198.461426, 4185.127930, 4198.461426, 4205.641113, 4224.102539, 4202.563965, 4157.436035, 4180.512695, 4238.461426, 4248.205078, 4242.563965, 3537.000000, 8442.000000, 8407.000000, 0.000000, 0.000000, 0.000000, 0.000000, 287.692291, 1545658573.271692, 4.000000, 4.000000, 4.000000, 4.000000, 4.000000, 4.000000, 4.000000, 4.000000, 4.000000, 4.000000, 4.000000, 4.000000, 4.000000, 4.000000, 4.000000, 4.000000
15.000000, 0.000000, 4201.538574, 4178.974121, 4182.563965, 4185.641113, 4188.717773, 4188.717773, 4181.025391, 4190.256348, 4178.461426, 4144.615234, 4166.666504, 4224.102539, 4234.358887, 4230.769043, 3239.000000, 8472.000000, 8449.000000, 0.000000, 0.000000, 0.000000, 0.000000, 295.384613, 1545658573.279385, 4.000000, 4.000000, 4.000000, 4.000000, 4.000000, 4.000000, 4.000000, 4.000000, 4.000000, 4.000000, 4.000000, 4.000000, 4.000000, 4.000000, 4.000000, 4.000000
16.000000, 0.000000, 4198.461426, 4167.692383, 4177.948730, 4177.948730, 4184.102539, 4187.692383, 4172.307617, 4181.538574, 4167.692383, 4138.461426, 4159.487305, 4216.922852, 4228.205078, 4221.025391, 0.000000, 8472.000000, 8449.000000, 0.000000, 0.000000, 0.000000, 0.000000, 303.589722, 1545658573.287590, 4.000000, 4.000000, 4.000000, 4.000000, 4.000000, 4.000000, 4.000000, 4.000000, 4.000000, 4.000000, 4.000000, 4.000000, 4.000000, 4.000000, 4.000000, 4.000000
17.000000, 0.000000, 4209.230469, 4175.384277, 4184.102539, 4188.717773, 4182.563965, 4195.384277, 4195.384277, 4236.410156, 4204.615234, 4158.461426, 4175.897461, 4230.769043, 4242.051270, 4233.333008, 0.000000, 8478.000000, 8475.000000, 0.000000, 0.000000, 0.000000, 0.000000, 311.282043, 1545658573.295282, 4.000000, 4.000000, 4.000000, 4.000000, 4.000000, 4.000000, 4.000000, 4.000000, 4.000000, 4.000000, 4.000000, 4.000000, 4.000000, 4.000000, 4.000000, 4.000000
18.000000, 0.000000, 4217.436035, 4187.692383, 4188.205078, 4195.897461, 4194.358887, 4202.051270, 4220.000000, 4247.692383, 4220.000000, 4171.794922, 4188.205078, 4237.436035, 4253.333008, 4246.153809, 0.000000, 8478.000000, 8475.000000, 0.000000, 0.000000, 0.000000, 0.000000, 318.974365, 1545658573.302974, 4.000000, 4.000000, 4.000000, 4.000000, 4.000000, 4.000000, 4.000000, 4.000000, 4.000000, 4.000000, 4.000000, 4.000000, 4.000000, 4.000000, 4.000000, 4.000000
19.000000, 0.000000, 4215.897461, 4191.281738, 4186.666504, 4197.948730, 4200.512695, 4202.051270, 4213.846191, 4197.948730, 4195.897461, 4166.153809, 4184.615234, 4230.256348, 4253.846191, 4243.589844, 0.000000, 8473.000000, 8499.000000, 0.000000, 0.000000, 0.000000, 0.000000, 326.666687, 1545658573.310667, 4.000000, 4.000000, 4.000000, 4.000000, 4.000000, 4.000000, 4.000000, 4.000000, 4.000000, 4.000000, 4.000000, 4.000000, 4.000000, 4.000000, 4.000000, 4.000000
20.000000, 0.000000, 4218.461426, 4193.846191, 4189.743652, 4200.512695, 4192.820313, 4192.820313, 4188.205078, 4187.179199, 4195.384277, 4167.179199, 4188.717773, 4233.846191, 4255.897461, 4247.179199, 0.000000, 8473.000000, 8499.000000, 0.000000, 0.000000, 0.000000, 0.000000, 334.358948, 1545658573.318359, 4.000000, 4.000000, 4.000000, 4.000000, 4.000000, 4.000000, 4.000000, 4.000000, 4.000000, 4.000000, 4.000000, 4.000000, 4.000000, 4.000000, 4.000000, 4.000000
21.000000, 0.000000, 4215.897461, 4183.589844, 4186.153809, 4187.692383, 4181.025391, 4181.025391, 4162.051270, 4194.871582, 4197.948730, 4168.717773, 4186.666504, 4235.384277, 4244.102539, 4246.153809, 0.000000, 8461.000000, 8493.000000, 0.000000, 0.000000, 0.000000, 0.000000, 342.051270, 1545658573.326051, 4.000000, 4.000000, 4.000000, 4.000000, 4.000000, 4.000000, 4.000000, 4.000000, 4.000000, 4.000000, 4.000000, 4.000000, 4.000000, 4.000000, 4.000000, 4.000000
22.000000, 0.000000, 4195.897461, 4162.051270, 4168.205078, 4167.692383, 4172.820313, 4176.410156, 4150.769043, 4175.897461, 4171.281738, 4144.102539, 4166.153809, 4216.922852, 4213.333008, 4225.641113, 0.000000, 8461.000000, 8493.000000, 0.000000, 0.000000, 0.000000, 0.000000, 350.256409, 1545658573.334256, 4.000000, 4.000000, 4.000000, 4.000000, 4.000000, 4.000000, 4.000000, 4.000000, 4.000000, 4.000000, 4.000000, 4.000000, 4.000000, 4.000000, 4.000000, 4.000000
23.000000, 0.000000, 4187.692383, 4156.922852, 4163.076660, 4162.563965, 4167.692383, 4174.358887, 4171.281738, 4183.076660, 4161.025391, 4130.769043, 4164.102539, 4209.230469, 4204.102539, 4218.974121, 0.000000, 8432.000000, 8508.000000, 0.000000, 0.000000, 0.000000, 0.000000, 357.948730, 1545658573.341949, 4.000000, 4.000000, 4.000000, 4.000000, 4.000000, 4.000000, 4.000000, 4.000000, 4.000000, 4.000000, 4.000000, 4.000000, 4.000000, 4.000000, 4.000000, 4.000000
24.000000, 0.000000, 4205.127930, 4168.205078, 4177.436035, 4173.333008, 4166.153809, 4168.205078, 4191.281738, 4208.717773, 4183.076660, 4153.846191, 4192.820313, 4226.666504, 4225.127930, 4240.512695, 0.000000, 8432.000000, 8508.000000, 0.000000, 0.000000, 0.000000, 0.000000, 365.641052, 1545658573.349641, 4.000000, 4.000000, 4.000000, 4.000000, 4.000000, 4.000000, 4.000000, 4.000000, 4.000000, 4.000000, 4.000000, 4.000000, 4.000000, 4.000000, 4.000000, 4.000000
25.000000, 0.000000, 4216.410156, 4167.179199, 4186.153809, 4183.589844, 4174.358887, 4171.281738, 4176.410156, 4209.230469, 4202.051270, 4171.281738, 4206.153809, 4236.410156, 4229.230469, 4252.307617, 0.000000, 8421.000000, 8514.000000, 0.000000, 0.000000, 0.000000, 0.000000, 373.333313, 1545658573.357333, 4.000000, 4.000000, 4.000000, 4.000000, 4.000000, 4.000000, 4.000000, 4.000000, 4.000000, 4.000000, 4.000000, 4.000000, 4.000000, 4.000000, 4.000000, 4.000000
26.000000, 0.000000, 4221.025391, 4166.153809, 4189.230469, 4183.076660, 4187.179199, 4192.307617, 4170.769043, 4205.641113, 4206.153809, 4169.743652, 4204.615234, 4235.897461, 4220.000000, 4251.794922, 0.000000, 8421.000000, 8514.000000, 0.000000, 0.000000, 0.000000, 0.000000, 381.025635, 1545658573.365026, 4.000000, 4.000000, 4.000000, 4.000000, 4.000000, 4.000000, 4.000000, 4.000000, 4.000000, 4.000000, 4.000000, 4.000000, 4.000000, 4.000000, 4.000000, 4.000000
27.000000, 0.000000, 4238.461426, 4188.717773, 4208.717773, 4194.871582, 4201.538574, 4215.384277, 4215.897461, 4224.615234, 4217.948730, 4187.692383, 4229.230469, 4252.820313, 4242.563965, 4273.333008, 0.000000, 8392.000000, 8505.000000, 0.000000, 0.000000, 0.000000, 0.000000, 388.717957, 1545658573.372718, 4.000000, 4.000000, 4.000000, 4.000000, 4.000000, 4.000000, 4.000000, 4.000000, 4.000000, 4.000000, 4.000000, 4.000000, 4.000000, 4.000000, 4.000000, 4.000000
28.000000, 0.000000, 4256.922852, 4212.307617, 4234.358887, 4218.461426, 4210.769043, 4223.589844, 4247.692383, 4264.615234, 4250.769043, 4217.436035, 4260.512695, 4277.948730, 4274.358887, 4298.974121, 0.000000, 8392.000000, 8505.000000, 0.000000, 0.000000, 0.000000, 0.000000, 396.923096, 1545658573.380923, 4.000000, 4.000000, 4.000000, 4.000000, 4.000000, 4.000000, 4.000000, 4.000000, 4.000000, 4.000000, 4.000000, 4.000000, 4.000000, 4.000000, 4.000000, 4.000000
29.000000, 0.000000, 4256.922852, 4210.769043, 4236.410156, 4222.051270, 4206.153809, 4216.410156, 4224.615234, 4260.512695, 4255.897461, 4213.846191, 4253.333008, 4277.948730, 4264.102539, 4299.487305, 0.000000, 8374.000000, 8498.000000, 0.000000, 0.000000, 0.000000, 0.000000, 404.615356, 1545658573.388615, 4.000000, 4.000000, 4.000000, 4.000000, 4.000000, 4.000000, 4.000000, 4.000000, 4.000000, 4.000000, 4.000000, 4.000000, 4.000000, 4.000000, 4.000000, 4.000000
30.000000, 0.000000, 4246.666504, 4198.974121, 4224.102539, 4211.281738, 4200.000000, 4212.307617, 4203.589844, 4204.102539, 4221.538574, 4193.333008, 4237.436035, 4265.127930, 4243.076660, 4290.256348, 0.000000, 8374.000000, 8498.000000, 0.000000, 0.000000, 0.000000, 0.000000, 412.307678, 1545658573.396308, 4.000000, 4.000000, 4.000000, 4.000000, 4.000000, 4.000000, 4.000000, 4.000000, 4.000000, 4.000000, 4.000000, 4.000000, 4.000000, 4.000000, 4.000000, 4.000000
31.000000, 0.000000, 4250.256348, 4205.127930, 4229.743652, 4217.436035, 4204.615234, 4220.512695, 4217.436035, 4204.615234, 4221.025391, 4205.127930, 4253.846191, 4272.820313, 4259.487305, 4297.948730, 0.000000, 8320.000000, 8489.000000, 0.000000, 0.000000, 0.000000, 0.000000, 420.000000, 1545658573.404000, 4.000000, 4.000000, 4.000000, 4.000000, 4.000000, 4.000000, 4.000000, 4.000000, 4.000000, 4.000000, 4.000000, 4.000000, 4.000000, 4.000000, 4.000000, 4.000000
32.000000, 0.000000, 4263.076660, 4214.871582, 4240.512695, 4221.025391, 4210.256348, 4229.743652, 4225.641113, 4244.102539, 4246.666504, 4222.051270, 4270.769043, 4286.666504, 4283.589844, 4311.794922, 0.000000, 8320.000000, 8489.000000, 0.000000, 0.000000, 0.000000, 0.000000, 427.692322, 1545658573.411692, 4.000000, 4.000000, 4.000000, 4.000000, 4.000000, 4.000000, 4.000000, 4.000000, 4.000000, 4.000000, 4.000000, 4.000000, 4.000000, 4.000000, 4.000000, 4.000000
33.000000, 0.000000, 4252.820313, 4198.974121, 4226.153809, 4198.974121, 4196.410156, 4224.102539, 4206.666504, 4235.384277, 4237.948730, 4207.179199, 4256.922852, 4272.820313, 4270.256348, 4303.076660, 0.000000, 8299.000000, 8486.000000, 0.000000, 0.000000, 0.000000, 0.000000, 435.897461, 1545658573.419898, 4.000000, 4.000000, 4.000000, 4.000000, 4.000000, 4.000000, 4.000000, 4.000000, 4.000000, 4.000000, 4.000000, 4.000000, 4.000000, 4.000000, 4.000000, 4.000000
34.000000, 0.000000, 4233.333008, 4172.307617, 4209.743652, 4187.692383, 4183.589844, 4214.358887, 4202.563965, 4237.948730, 4232.307617, 4198.461426, 4241.538574, 4259.487305, 4246.153809, 4286.153809, 0.000000, 8299.000000, 8486.000000, 0.000000, 0.000000, 0.000000, 0.000000, 443.589722, 1545658573.427590, 4.000000, 4.000000, 4.000000, 4.000000, 4.000000, 4.000000, 4.000000, 4.000000, 4.000000, 4.000000, 4.000000, 4.000000, 4.000000, 4.000000, 4.000000, 4.000000
35.000000, 0.000000, 4242.051270, 4174.871582, 4223.076660, 4203.589844, 4188.717773, 4214.358887, 4221.025391, 4262.051270, 4251.794922, 4216.410156, 4252.307617, 4274.358887, 4258.974121, 4293.846191, 0.000000, 8252.000000, 8452.000000, 0.000000, 0.000000, 0.000000, 0.000000, 451.282043, 1545658573.435282, 4.000000, 4.000000, 4.000000, 4.000000, 4.000000, 4.000000, 4.000000, 4.000000, 4.000000, 4.000000, 4.000000, 4.000000, 4.000000, 4.000000, 4.000000, 4.000000
36.000000, 0.000000, 4252.307617, 4188.205078, 4227.692383, 4202.563965, 4191.281738, 4210.769043, 4220.512695, 4227.179199, 4233.846191, 4210.769043, 4257.436035, 4274.871582, 4271.794922, 4299.487305, 0.000000, 8252.000000, 8452.000000, 0.000000, 0.000000, 0.000000, 0.000000, 458.974365, 1545658573.442974, 4.000000, 4.000000, 4.000000, 4.000000, 4.000000, 4.000000, 4.000000, 4.000000, 4.000000, 4.000000, 4.000000, 4.000000, 4.000000, 4.000000, 4.000000, 4.000000
37.000000, 0.000000, 4232.820313, 4181.025391, 4205.641113, 4181.538574, 4183.589844, 4197.436035, 4200.512695, 4186.153809, 4194.871582, 4180.512695, 4235.384277, 4250.256348, 4246.666504, 4278.974121, 0.000000, 8240.000000, 8458.000000, 0.000000, 0.000000, 0.000000, 0.000000, 466.666687, 1545658573.450667, 4.000000, 4.000000, 4.000000, 4.000000, 4.000000, 4.000000, 4.000000, 4.000000, 4.000000, 4.000000, 4.000000, 4.000000, 4.000000, 4.000000, 4.000000, 4.000000
38.000000, 0.000000, 4219.487305, 4176.410156, 4196.410156, 4181.538574, 4181.025391, 4190.256348, 4179.487305, 4190.256348, 4197.948730, 4170.769043, 4221.025391, 4242.563965, 4228.205078, 4268.717773, 0.000000, 8240.000000, 8458.000000, 0.000000, 0.000000, 0.000000, 0.000000, 474.358948, 1545658573.458359, 4.000000, 4.000000, 4.000000, 4.000000, 4.000000, 4.000000, 4.000000, 4.000000, 4.000000, 4.000000, 4.000000, 4.000000, 4.000000, 4.000000, 4.000000, 4.000000
39.000000, 0.000000, 4225.127930, 4183.076660, 4202.563965, 4189.230469, 4183.589844, 4186.153809, 4163.589844, 4190.256348, 4207.692383, 4171.794922, 4228.205078, 4248.205078, 4234.358887, 4275.384277, 0.000000, 8235.000000, 8457.000000, 0.000000, 0.000000, 0.000000, 0.000000, 482.564087, 1545658573.466564, 4.000000, 4.000000, 4.000000, 4.000000, 4.000000, 4.000000, 4.000000, 4.000000, 4.000000, 4.000000, 4.000000, 4.000000, 4.000000, 4.000000, 4.000000, 4.000000
40.000000, 0.000000, 4225.641113, 4186.153809, 4204.102539, 4188.205078, 4180.512695, 4182.563965, 4175.384277, 4188.205078, 4191.794922, 4166.666504, 4229.743652, 4245.641113, 4232.307617, 4278.461426, 0.000000, 8235.000000, 8457.000000, 0.000000, 0.000000, 0.000000, 0.000000, 490.256409, 1545658573.474256, 4.000000, 4.000000, 4.000000, 4.000000, 4.000000, 4.000000, 4.000000, 4.000000, 4.000000, 4.000000, 4.000000, 4.000000, 4.000000, 4.000000, 4.000000, 4.000000
41.000000, 0.000000, 4220.000000, 4181.538574, 4201.025391, 4185.641113, 4173.333008, 4185.641113, 4199.487305, 4206.666504, 4184.102539, 4171.281738, 4224.615234, 4245.641113, 4223.076660, 4279.487305, 0.000000, 8233.000000, 8445.000000, 0.000000, 0.000000, 0.000000, 0.000000, 497.948730, 1545658573.481949, 4.000000, 4.000000, 4.000000, 4.000000, 4.000000, 4.000000, 4.000000, 4.000000, 4.000000, 4.000000, 4.000000, 4.000000, 4.000000, 4.000000, 4.000000, 4.000000
42.000000, 0.000000, 4215.897461, 4175.384277, 4196.922852, 4179.487305, 4167.179199, 4185.641113, 4196.922852, 4210.256348, 4196.410156, 4181.025391, 4227.692383, 4244.615234, 4221.538574, 4280.000000, 0.000000, 8233.000000, 8445.000000, 0.000000, 0.000000, 0.000000, 0.000000, 505.640991, 1545658573.489641, 4.000000, 4.000000, 4.000000, 4.000000, 4.000000, 4.000000, 4.000000, 4.000000, 4.000000, 4.000000, 4.000000, 4.000000, 4.000000, 4.000000, 4.000000, 4.000000
43.000000, 0.000000, 4217.436035, 4174.871582, 4196.922852, 4180.512695, 4174.871582, 4187.179199, 4194.871582, 4207.692383, 4209.743652, 4189.230469, 4231.281738, 4238.974121, 4230.256348, 4281.538574, 0.000000, 8237.000000, 8431.000000, 0.000000, 0.000000, 0.000000, 0.000000, 513.333313, 1545658573.497333, 4.000000, 4.000000, 4.000000, 4.000000, 4.000000, 4.000000, 4.000000, 4.000000, 4.000000, 4.000000, 4.000000, 4.000000, 4.000000, 4.000000, 4.000000, 4.000000
44.000000, 0.000000, 4219.487305, 4179.487305, 4199.487305, 4185.127930, 4188.205078, 4192.307617, 4201.025391, 4207.179199, 4203.589844, 4185.641113, 4224.615234, 4234.358887, 4234.871582, 4282.563965, 0.000000, 8237.000000, 8431.000000, 0.000000, 0.000000, 0.000000, 0.000000, 521.025635, 1545658573.505026, 4.000000, 4.000000, 4.000000, 4.000000, 4.000000, 4.000000, 4.000000, 4.000000, 4.000000, 4.000000, 4.000000, 4.000000, 4.000000, 4.000000, 4.000000, 4.000000
45.000000, 0.000000, 4205.127930, 4173.333008, 4187.179199, 4172.820313, 4180.000000, 4189.230469, 4184.102539, 4189.743652, 4184.102539, 4162.051270, 4211.281738, 4220.512695, 4213.846191, 4268.205078, 0.000000, 8237.000000, 8425.000000, 0.000000, 0.000000, 0.000000, 0.000000, 529.230774, 1545658573.513231, 4.000000, 4.000000, 4.000000, 4.000000, 4.000000, 4.000000, 4.000000, 4.000000, 4.000000, 4.000000, 4.000000, 4.000000, 4.000000, 4.000000, 4.000000, 4.000000
46.000000, 0.000000, 4191.281738, 4163.076660, 4175.384277, 4167.179199, 4172.820313, 4184.102539, 4173.333008, 4180.000000, 4180.512695, 4149.230469, 4204.102539, 4209.743652, 4194.871582, 4254.871582, 0.000000, 8237.000000, 8425.000000, 0.000000, 0.000000, 0.000000, 0.000000, 536.923096, 1545658573.520923, 4.000000, 4.000000, 4.000000, 4.000000, 4.000000, 4.000000, 4.000000, 4.000000, 4.000000, 4.000000, 4.000000, 4.000000, 4.000000, 4.000000, 4.000000, 4.000000
47.000000, 0.000000, 4208.717773, 4177.948730, 4190.256348, 4184.615234, 4184.102539, 4186.666504, 4191.281738, 4190.769043, 4189.743652, 4161.538574, 4214.871582, 4221.538574, 4208.717773, 4270.769043, 0.000000, 8229.000000, 8432.000000, 0.000000, 0.000000, 0.000000, 0.000000, 544.615356, 1545658573.528615, 4.000000, 4.000000, 4.000000, 4.000000, 4.000000, 4.000000, 4.000000, 4.000000, 4.000000, 4.000000, 4.000000, 4.000000, 4.000000, 4.000000, 4.000000, 4.000000
48.000000, 0.000000, 4220.512695, 4191.794922, 4200.000000, 4185.641113, 4190.769043, 4188.717773, 4197.436035, 4195.897461, 4190.256348, 4165.127930, 4221.538574, 4229.743652, 4211.794922, 4281.025391, 0.000000, 8229.000000, 8432.000000, 0.000000, 0.000000, 0.000000, 0.000000, 552.307678, 1545658573.536308, 4.000000, 4.000000, 4.000000, 4.000000, 4.000000, 4.000000, 4.000000, 4.000000, 4.000000, 4.000000, 4.000000, 4.000000, 4.000000, 4.000000, 4.000000, 4.000000
49.000000, 0.000000, 4201.025391, 4182.051270, 4185.127930, 4169.743652, 4186.153809, 4184.615234, 4178.461426, 4184.102539, 4183.589844, 4149.743652, 4206.153809, 4214.871582, 4186.153809, 4266.153809, 0.000000, 8241.000000, 8437.000000, 0.000000, 0.000000, 0.000000, 0.000000, 560.000000, 1545658573.544000, 4.000000, 4.000000, 4.000000, 4.000000, 4.000000, 4.000000, 4.000000, 4.000000, 4.000000, 4.000000, 4.000000, 4.000000, 4.000000, 4.000000, 4.000000, 4.000000
50.000000, 0.000000, 4201.538574, 4180.000000, 4186.153809, 4175.384277, 4187.692383, 4185.641113, 4180.512695, 4182.051270, 4181.538574, 4149.230469, 4202.051270, 4212.307617, 4184.102539, 4267.179199, 0.000000, 8241.000000, 8437.000000, 0.000000, 0.000000, 0.000000, 0.000000, 567.692322, 1545658573.551692, 4.000000, 4.000000, 4.000000, 4.000000, 4.000000, 4.000000, 4.000000, 4.000000, 4.000000, 4.000000, 4.000000, 4.000000, 4.000000, 4.000000, 4.000000, 4.000000
51.000000, 0.000000, 4224.102539, 4186.153809, 4204.102539, 4187.692383, 4187.692383, 4187.692383, 4200.000000, 4191.281738, 4183.076660, 4163.589844, 4214.871582, 4229.230469, 4203.589844, 4285.127930, 0.000000, 8271.000000, 8433.000000, 0.000000, 0.000000, 0.000000, 0.000000, 575.897400, 1545658573.559897, 4.000000, 4.000000, 4.000000, 4.000000, 4.000000, 4.000000, 4.000000, 4.000000, 4.000000, 4.000000, 4.000000, 4.000000, 4.000000, 4.000000, 4.000000, 4.000000
52.000000, 0.000000, 4223.589844, 4181.025391, 4205.641113, 4184.102539, 4182.051270, 4184.615234, 4200.000000, 4196.922852, 4190.256348, 4167.692383, 4214.358887, 4230.769043, 4200.000000, 4289.230469, 0.000000, 8271.000000, 8433.000000, 0.000000, 0.000000, 0.000000, 0.000000, 583.589722, 1545658573.567590, 4.000000, 4.000000, 4.000000, 4.000000, 4.000000, 4.000000, 4.000000, 4.000000, 4.000000, 4.000000, 4.000000, 4.000000, 4.000000, 4.000000, 4.000000, 4.000000
53.000000, 0.000000, 4222.051270, 4187.692383, 4205.641113, 4191.281738, 4190.769043, 4195.897461, 4201.538574, 4206.153809, 4204.102539, 4173.333008, 4214.358887, 4228.205078, 4198.461426, 4291.281738, 0.000000, 8289.000000, 8418.000000, 0.000000, 0.000000, 0.000000, 0.000000, 591.282043, 1545658573.575282, 4.000000, 4.000000, 4.000000, 4.000000, 4.000000, 4.000000, 4.000000, 4.000000, 4.000000, 4.000000, 4.000000, 4.000000, 4.000000, 4.000000, 4.000000, 4.000000
54.000000, 0.000000, 4231.794922, 4198.974121, 4212.820313, 4201.538574, 4203.076660, 4213.846191, 4212.820313, 4207.692383, 4207.692383, 4181.025391, 4223.589844, 4234.358887, 4212.820313, 4301.538574, 0.000000, 8289.000000, 8418.000000, 0.000000, 0.000000, 0.000000, 0.000000, 598.974365, 1545658573.582974, 4.000000, 4.000000, 4.000000, 4.000000, 4.000000, 4.000000, 4.000000, 4.000000, 4.000000, 4.000000, 4.000000, 4.000000, 4.000000, 4.000000, 4.000000, 4.000000
55.000000, 0.000000, 4221.025391, 4191.281738, 4204.102539, 4187.179199, 4196.922852, 4216.922852, 4210.769043, 4196.922852, 4197.436035, 4171.281738, 4215.897461, 4226.153809, 4205.641113, 4295.897461, 0.000000, 8306.000000, 8383.000000, 0.000000, 0.000000, 0.000000, 0.000000, 606.666687, 1545658573.590667, 4.000000, 4.000000, 4.000000, 4.000000, 4.000000, 4.000000, 4.000000, 4.000000, 4.000000, 4.000000, 4.000000, 4.000000, 4.000000, 4.000000, 4.000000, 4.000000
56.000000, 0.000000, 4213.846191, 4187.179199, 4202.051270, 4184.102539, 4193.333008, 4220.512695, 4207.692383, 4201.538574, 4201.538574, 4167.179199, 4212.820313, 4219.487305, 4199.487305, 4292.820313, 0.000000, 8306.000000, 8383.000000, 0.000000, 0.000000, 0.000000, 0.000000, 614.358948, 1545658573.598359, 4.000000, 4.000000, 4.000000, 4.000000, 4.000000, 4.000000, 4.000000, 4.000000, 4.000000, 4.000000, 4.000000, 4.000000, 4.000000, 4.000000, 4.000000, 4.000000
57.000000, 0.000000, 4238.461426, 4203.076660, 4224.102539, 4208.205078, 4207.179199, 4235.384277, 4223.076660, 4224.102539, 4225.641113, 4188.717773, 4237.948730, 4237.948730, 4223.589844, 4314.358887, 0.000000, 8302.000000, 8377.000000, 0.000000, 0.000000, 0.000000, 0.000000, 622.564087, 1545658573.606564, 4.000000, 4.000000, 4.000000, 4.000000, 4.000000, 4.000000, 4.000000, 4.000000, 4.000000, 4.000000, 4.000000, 4.000000, 4.000000, 4.000000, 4.000000, 4.000000
58.000000, 0.000000, 4252.820313, 4212.307617, 4233.846191, 4213.333008, 4210.769043, 4236.922852, 4234.358887, 4234.871582, 4237.436035, 4202.563965, 4252.820313, 4251.281738, 4234.871582, 4324.615234, 0.000000, 8302.000000, 8377.000000, 0.000000, 0.000000, 0.000000, 0.000000, 630.256409, 1545658573.614256, 4.000000, 4.000000, 4.000000, 4.000000, 4.000000, 4.000000, 4.000000, 4.000000, 4.000000, 4.000000, 4.000000, 4.000000, 4.000000, 4.000000, 4.000000, 4.000000
59.000000, 0.000000, 4243.589844, 4211.281738, 4227.692383, 4198.461426, 4204.102539, 4229.743652, 4232.820313, 4230.769043, 4233.846191, 4197.436035, 4249.743652, 4243.589844, 4224.615234, 4318.461426, 0.000000, 8292.000000, 8364.000000, 0.000000, 0.000000, 0.000000, 0.000000, 637.948730, 1545658573.621949, 4.000000, 4.000000, 4.000000, 4.000000, 4.000000, 4.000000, 4.000000, 4.000000, 4.000000, 4.000000, 4.000000, 4.000000, 4.000000, 4.000000, 4.000000, 4.000000
60.000000, 0.000000, 4240.512695, 4208.717773, 4227.692383, 4195.384277, 4209.230469, 4231.281738, 4230.769043, 4224.102539, 4231.794922, 4197.436035, 4249.743652, 4240.000000, 4227.179199, 4317.436035, 0.000000, 8292.000000, 8364.000000, 0.000000, 0.000000, 0.000000, 0.000000, 645.640991, 1545658573.629641, 4.000000, 4.000000, 4.000000, 4.000000, 4.000000, 4.000000, 4.000000, 4.000000, 4.000000, 4.000000, 4.000000, 4.000000, 4.000000, 4.000000, 4.000000, 4.000000
61.000000, 0.000000, 4233.846191, 4187.692383, 4216.410156, 4190.769043, 4206.153809, 4225.127930, 4215.384277, 4210.769043, 4218.974121, 4189.743652, 4238.974121, 4233.333008, 4223.589844, 4309.230469, 0.000000, 8286.000000, 8368.000000, 0.000000, 0.000000, 0.000000, 0.000000, 653.333313, 1545658573.637333, 4.000000, 4.000000, 4.000000, 4.000000, 4.000000, 4.000000, 4.000000, 4.000000, 4.000000, 4.000000, 4.000000, 4.000000, 4.000000, 4.000000, 4.000000, 4.000000
62.000000, 0.000000, 4213.333008, 4167.692383, 4195.384277, 4174.358887, 4187.179199, 4208.205078, 4200.000000, 4199.487305, 4200.000000, 4172.820313, 4217.436035, 4213.333008, 4198.461426, 4289.743652, 0.000000, 8286.000000, 8368.000000, 0.000000, 0.000000, 0.000000, 0.000000, 661.025635, 1545658573.645026, 4.000000, 4.000000, 4.000000, 4.000000, 4.000000, 4.000000, 4.000000, 4.000000, 4.000000, 4.000000, 4.000000, 4.000000, 4.000000, 4.000000, 4.000000, 4.000000
63.000000, 0.000000, 4202.563965, 4172.820313, 4192.307617, 4166.666504, 4185.641113, 4202.563965, 4202.051270, 4196.410156, 4192.307617, 4168.205078, 4212.820313, 4199.487305, 4186.666504, 4285.127930, 0.000000, 8296.000000, 8344.000000, 0.000000, 0.000000, 0.000000, 0.000000, 669.230774, 1545658573.653231, 4.000000, 4.000000, 4.000000, 4.000000, 4.000000, 4.000000, 4.000000, 4.000000, 4.000000, 4.000000, 4.000000, 4.000000, 4.000000, 4.000000, 4.000000, 4.000000
64.000000, 0.000000, 4207.692383, 4183.076660, 4196.922852, 4171.281738, 4195.384277, 4203.076660, 4202.563965, 4188.717773, 4189.230469, 4168.717773, 4216.922852, 4202.051270, 4189.743652, 4290.769043, 3322.000000, 8296.000000, 8344.000000, 0.000000, 0.000000, 0.000000, 0.000000, 676.923096, 1545658573.660923, 4.000000, 4.000000, 4.000000, 4.000000, 4.000000, 4.000000, 4.000000, 4.000000, 4.000000, 4.000000, 4.000000, 4.000000, 4.000000, 4.000000, 4.000000, 4.000000
65.000000, 0.000000, 4213.333008, 4187.179199, 4197.436035, 4182.051270, 4195.384277, 4203.076660, 4194.871582, 4184.102539, 4181.025391, 4165.127930, 4214.358887, 4211.281738, 4194.358887, 4290.769043, 3513.000000, 8305.000000, 8324.000000, 0.000000, 0.000000, 0.000000, 0.000000, 684.615356, 1545658573.668615, 4.000000, 4.000000, 4.000000, 4.000000, 4.000000, 4.000000, 4.000000, 4.000000, 4.000000, 4.000000, 4.000000, 4.000000, 4.000000, 4.000000, 4.000000, 4.000000
66.000000, 0.000000, 4218.461426, 4198.461426, 4201.538574, 4190.256348, 4201.538574, 4213.846191, 4197.948730, 4192.307617, 4185.641113, 4166.153809, 4222.563965, 4215.897461, 4206.153809, 4296.410156, 3301.000000, 8305.000000, 8324.000000, 0.000000, 0.000000, 0.000000, 0.000000, 692.307678, 1545658573.676308, 4.000000, 4.000000, 4.000000, 4.000000, 4.000000, 4.000000, 4.000000, 4.000000, 4.000000, 4.000000, 4.000000, 4.000000, 4.000000, 4.000000, 4.000000, 4.000000
67.000000, 0.000000, 4232.307617, 4215.384277, 4214.871582, 4196.410156, 4217.436035, 4229.743652, 4212.307617, 4203.589844, 4208.205078, 4180.512695, 4243.589844, 4226.153809, 4225.641113, 4310.769043, 3570.000000, 8308.000000, 8298.000000, 0.000000, 0.000000, 0.000000, 0.000000, 700.000000, 1545658573.684000, 4.000000, 4.000000, 4.000000, 4.000000, 4.000000, 4.000000, 4.000000, 4.000000, 4.000000, 4.000000, 4.000000, 4.000000, 4.000000, 4.000000, 4.000000, 4.000000
68.000000, 0.000000, 4246.666504, 4222.051270, 4228.205078, 4208.717773, 4218.461426, 4229.743652, 4210.769043, 4206.153809, 4215.384277, 4193.333008, 4254.871582, 4241.538574, 4234.358887, 4324.102539, 3389.000000, 8308.000000, 8298.000000, 0.000000, 0.000000, 0.000000, 0.000000, 708.205139, 1545658573.692205, 4.000000, 4.000000, 4.000000, 4.000000, 4.000000, 4.000000, 4.000000, 4.000000, 4.000000, 4.000000, 4.000000, 4.000000, 4.000000, 4.000000, 4.000000, 4.000000
69.000000, 0.000000, 4249.743652, 4223.589844, 4232.820313, 4214.871582, 4208.205078, 4214.871582, 4193.333008, 4195.384277, 4205.127930, 4186.153809, 4250.769043, 4242.051270, 4229.230469, 4325.127930, 3479.000000, 8301.000000, 8293.000000, 0.000000, 0.000000, 0.000000, 0.000000, 715.897400, 1545658573.699898, 4.000000, 4.000000, 4.000000, 4.000000, 4.000000, 4.000000, 4.000000, 4.000000, 4.000000, 4.000000, 4.000000, 4.000000, 4.000000, 4.000000, 4.000000, 4.000000
70.000000, 0.000000, 4241.025391, 4219.487305, 4226.153809, 4208.717773, 4199.487305, 4201.538574, 4184.102539, 4183.589844, 4195.897461, 4170.256348, 4243.589844, 4231.281738, 4217.436035, 4316.410156, 3414.000000, 8301.000000, 8293.000000, 0.000000, 0.000000, 0.000000, 0.000000, 723.589722, 1545658573.707590, 4.000000, 4.000000, 4.000000, 4.000000, 4.000000, 4.000000, 4.000000, 4.000000, 4.000000, 4.000000, 4.000000, 4.000000, 4.000000, 4.000000, 4.000000, 4.000000
71.000000, 0.000000, 4227.179199, 4208.205078, 4213.333008, 4196.410156, 4190.769043, 4195.897461, 4186.666504, 4184.615234, 4185.127930, 4164.615234, 4235.384277, 4224.102539, 4207.179199, 4306.153809, 3206.000000, 8291.000000, 8282.000000, 0.000000, 0.000000, 0.000000, 0.000000, 731.282043, 1545658573.715282, 4.000000, 4.000000, 4.000000, 4.000000, 4.000000, 4.000000, 4.000000, 4.000000, 4.000000, 4.000000, 4.000000, 4.000000, 4.000000, 4.000000, 4.000000, 4.000000
72.000000, 0.000000, 4217.948730, 4200.512695, 4204.102539, 4188.205078, 4186.153809, 4196.922852, 4189.230469, 4187.692383, 4179.487305, 4166.666504, 4227.179199, 4215.897461, 4202.563965, 4297.948730, 3420.000000, 8291.000000, 8282.000000, 0.000000, 0.000000, 0.000000, 0.000000, 738.974365, 1545658573.722974, 4.000000, 4.000000, 4.000000, 4.000000, 4.000000, 4.000000, 4.000000, 4.000000, 4.000000, 4.000000, 4.000000, 4.000000, 4.000000, 4.000000, 4.000000, 4.000000
73.000000, 0.000000, 4213.333008, 4194.358887, 4195.897461, 4181.538574, 4184.102539, 4191.281738, 4183.589844, 4174.358887, 4179.487305, 4158.974121, 4217.436035, 4203.076660, 4190.769043, 4286.666504, 3237.000000, 8283.000000, 8252.000000, 0.000000, 0.000000, 0.000000, 0.000000, 746.666626, 1545658573.730666, 4.000000, 4.000000, 4.000000, 4.000000, 4.000000, 4.000000, 4.000000, 4.000000, 4.000000, 4.000000, 4.000000, 4.000000, 4.000000, 4.000000, 4.000000, 4.000000
74.000000, 0.000000, 4201.025391, 4189.743652, 4185.127930, 4172.820313, 4173.333008, 4174.871582, 4167.179199, 4155.897461, 4163.589844, 4140.000000, 4198.974121, 4189.230469, 4171.794922, 4269.230469, 3551.000000, 8283.000000, 8252.000000, 0.000000, 0.000000, 0.000000, 0.000000, 754.871765, 1545658573.738872, 4.000000, 4.000000, 4.000000, 4.000000, 4.000000, 4.000000, 4.000000, 4.000000, 4.000000, 4.000000, 4.000000, 4.000000, 4.000000, 4.000000, 4.000000, 4.000000
75.000000, 0.000000, 4185.127930, 4180.000000, 4174.871582, 4160.000000, 4162.563965, 4158.974121, 4148.205078, 4148.205078, 4143.076660, 4127.179199, 4181.025391, 4173.846191, 4158.974121, 4254.871582, 3246.000000, 8260.000000, 8240.000000, 0.000000, 0.000000, 0.000000, 0.000000, 762.564087, 1545658573.746564, 4.000000, 4.000000, 4.000000, 4.000000, 4.000000, 4.000000, 4.000000, 4.000000, 4.000000, 4.000000, 4.000000, 4.000000, 4.000000, 4.000000, 4.000000, 4.000000
76.000000, 0.000000, 4185.127930, 4170.769043, 4175.897461, 4155.897461, 4165.127930, 4158.461426, 4149.743652, 4154.358887, 4150.769043, 4135.897461, 4183.076660, 4171.794922, 4156.410156, 4256.922852, 3517.000000, 8260.000000, 8240.000000, 0.000000, 0.000000, 0.000000, 0.000000, 770.256409, 1545658573.754256, 4.000000, 4.000000, 4.000000, 4.000000, 4.000000, 4.000000, 4.000000, 4.000000, 4.000000, 4.000000, 4.000000, 4.000000, 4.000000, 4.000000, 4.000000, 4.000000
77.000000, 0.000000, 4193.846191, 4171.281738, 4181.538574, 4160.000000, 4172.820313, 4171.281738, 4164.615234, 4159.487305, 4160.000000, 4151.794922, 4192.820313, 4178.461426, 4156.922852, 4262.051270, 3148.000000, 8250.000000, 8251.000000, 0.000000, 0.000000, 0.000000, 0.000000, 777.948730, 1545658573.761949, 4.000000, 4.000000, 4.000000, 4.000000, 4.000000, 4.000000, 4.000000, 4.000000, 4.000000, 4.000000, 4.000000, 4.000000, 4.000000, 4.000000, 4.000000, 4.000000
78.000000, 0.000000, 4189.743652, 4172.307617, 4173.846191, 4156.410156, 4166.153809, 4173.333008, 4161.025391, 4153.333008, 4151.281738, 4146.153809, 4194.358887, 4174.358887, 4156.922852, 4252.820313, 3551.000000, 8250.000000, 8251.000000, 0.000000, 0.000000, 0.000000, 0.000000, 785.640991, 1545658573.769641, 4.000000, 4.000000, 4.000000, 4.000000, 4.000000, 4.000000, 4.000000, 4.000000, 4.000000, 4.000000, 4.000000, 4.000000, 4.000000, 4.000000, 4.000000, 4.000000
79.000000, 0.000000, 4190.256348, 4175.384277, 4174.358887, 4157.436035, 4162.051270, 4168.205078, 4161.025391, 4158.461426, 4157.436035, 4145.641113, 4205.127930, 4177.436035, 4170.256348, 4254.871582, 3246.000000, 8231.000000, 8251.000000, 0.000000, 0.000000, 0.000000, 0.000000, 793.333344, 1545658573.777333, 4.000000, 4.000000, 4.000000, 4.000000, 4.000000, 4.000000, 4.000000, 4.000000, 4.000000, 4.000000, 4.000000, 4.000000, 4.000000, 4.000000, 4.000000, 4.000000
80.000000, 0.000000, 4202.563965, 4186.153809, 4193.846191, 4169.230469, 4176.922852, 4178.974121, 4180.512695, 4175.384277, 4178.461426, 4169.230469, 4223.076660, 4192.307617, 4191.794922, 4270.256348, 3517.000000, 8231.000000, 8251.000000, 0.000000, 0.000000, 0.000000, 0.000000, 801.538472, 1545658573.785539, 4.000000, 4.000000, 4.000000, 4.000000, 4.000000, 4.000000, 4.000000, 4.000000, 4.000000, 4.000000, 4.000000, 4.000000, 4.000000, 4.000000, 4.000000, 4.000000
81.000000, 0.000000, 4208.717773, 4196.410156, 4202.051270, 4173.846191, 4192.820313, 4196.410156, 4187.692383, 4181.538574, 4188.205078, 4185.127930, 4225.127930, 4196.410156, 4204.102539, 4274.871582, 3148.000000, 8225.000000, 8251.000000, 0.000000, 0.000000, 0.000000, 0.000000, 809.230780, 1545658573.793231, 4.000000, 4.000000, 4.000000, 4.000000, 4.000000, 4.000000, 4.000000, 4.000000, 4.000000, 4.000000, 4.000000, 4.000000, 4.000000, 4.000000, 4.000000, 4.000000
82.000000, 0.000000, 4199.487305, 4189.743652, 4189.743652, 4164.615234, 4179.487305, 4188.205078, 4174.358887, 4171.794922, 4174.871582, 4170.769043, 4210.769043, 4185.127930, 4200.000000, 4266.153809, 3551.000000, 8225.000000, 8251.000000, 0.000000, 0.000000, 0.000000, 0.000000, 816.923088, 1545658573.800923, 4.000000, 4.000000, 4.000000, 4.000000, 4.000000, 4.000000, 4.000000, 4.000000, 4.000000, 4.000000, 4.000000, 4.000000, 4.000000, 4.000000, 4.000000, 4.000000
83.000000, 0.000000, 4184.102539, 4168.205078, 4175.384277, 4152.307617, 4153.333008, 4166.666504, 4168.717773, 4158.461426, 4155.384277, 4153.846191, 4193.846191, 4173.846191, 4196.410156, 4248.205078, 3246.000000, 8219.000000, 8253.000000, 0.000000, 0.000000, 0.000000, 0.000000, 824.615395, 1545658573.808615, 4.000000, 4.000000, 4.000000, 4.000000, 4.000000, 4.000000, 4.000000, 4.000000, 4.000000, 4.000000, 4.000000, 4.000000, 4.000000, 4.000000, 4.000000, 4.000000
84.000000, 0.000000, 4171.794922, 4158.461426, 4166.153809, 4147.692383, 4154.871582, 4166.666504, 4172.307617, 4153.333008, 4152.307617, 4152.307617, 4178.461426, 4165.127930, 4200.000000, 4229.230469, 3517.000000, 8219.000000, 8253.000000, 0.000000, 0.000000, 0.000000, 0.000000, 832.307701, 1545658573.816308, 4.000000, 4.000000, 4.000000, 4.000000, 4.000000, 4.000000, 4.000000, 4.000000, 4.000000, 4.000000, 4.000000, 4.000000, 4.000000, 4.000000, 4.000000, 4.000000
85.000000, 0.000000, 4179.487305, 4182.051270, 4175.384277, 4168.205078, 4180.000000, 4188.717773, 4182.051270, 4168.717773, 4168.205078, 4161.025391, 4186.153809, 4172.307617, 4228.717773, 4235.384277, 3148.000000, 8219.000000, 8256.000000, 0.000000, 0.000000, 0.000000, 0.000000, 840.000011, 1545658573.824000, 4.000000, 4.000000, 4.000000, 4.000000, 4.000000, 4.000000, 4.000000, 4.000000, 4.000000, 4.000000, 4.000000, 4.000000, 4.000000, 4.000000, 4.000000, 4.000000
86.000000, 0.000000, 4203.076660, 4212.307617, 4201.538574, 4196.410156, 4197.948730, 4204.615234, 4197.436035, 4189.743652, 4188.717773, 4182.051270, 4215.897461, 4193.846191, 4286.666504, 4258.974121, 3551.000000, 8219.000000, 8256.000000, 0.000000, 0.000000, 0.000000, 0.000000, 848.205139, 1545658573.832205, 4.000000, 4.000000, 4.000000, 4.000000, 4.000000, 4.000000, 4.000000, 4.000000, 4.000000, 4.000000, 4.000000, 4.000000, 4.000000, 4.000000, 4.000000, 4.000000
87.000000, 0.000000, 4191.281738, 4196.410156, 4189.743652, 4177.948730, 4180.512695, 4190.769043, 4183.076660, 4175.384277, 4180.512695, 4181.538574, 4205.641113, 4181.538574, 4299.487305, 4242.051270, 3246.000000, 8216.000000, 8267.000000, 0.000000, 0.000000, 0.000000, 0.000000, 855.897446, 1545658573.839897, 4.000000, 4.000000, 4.000000, 4.000000, 4.000000, 4.000000, 4.000000, 4.000000, 4.000000, 4.000000, 4.000000, 4.000000, 4.000000, 4.000000, 4.000000, 4.000000
88.000000, 0.000000, 4151.794922, 4158.461426, 4147.692383, 4133.846191, 4153.333008, 4163.076660, 4150.769043, 4142.051270, 4142.563965, 4145.641113, 4157.436035, 4145.127930, 4262.563965, 4197.436035, 3517.000000, 8216.000000, 8267.000000, 0.000000, 0.000000, 0.000000, 0.000000, 863.589752, 1545658573.847590, 4.000000, 4.000000, 4.000000, 4.000000, 4.000000, 4.000000, 4.000000, 4.000000, 4.000000, 4.000000, 4.000000, 4.000000, 4.000000, 4.000000, 4.000000, 4.000000
89.000000, 0.000000, 4144.102539, 4156.922852, 4143.076660, 4129.743652, 4153.333008, 4153.333008, 4148.717773, 4134.358887, 4127.692383, 4128.205078, 4145.641113, 4138.461426, 4262.563965, 4186.153809, 3148.000000, 8213.000000, 8280.000000, 0.000000, 0.000000, 0.000000, 0.000000, 871.282059, 1545658573.855282, 4.000000, 4.000000, 4.000000, 4.000000, 4.000000, 4.000000, 4.000000, 4.000000, 4.000000, 4.000000, 4.000000, 4.000000, 4.000000, 4.000000, 4.000000, 4.000000
90.000000, 0.000000, 4154.358887, 4163.589844, 4157.948730, 4144.615234, 4157.436035, 4158.461426, 4154.358887, 4140.000000, 4133.333008, 4138.461426, 4154.358887, 4144.615234, 4282.563965, 4189.743652, 3551.000000, 8213.000000, 8280.000000, 0.000000, 0.000000, 0.000000, 0.000000, 878.974365, 1545658573.862974, 4.000000, 4.000000, 4.000000, 4.000000, 4.000000, 4.000000, 4.000000, 4.000000, 4.000000, 4.000000, 4.000000, 4.000000, 4.000000, 4.000000, 4.000000, 4.000000
91.000000, 0.000000, 4143.076660, 4150.769043, 4152.307617, 4134.358887, 4146.153809, 4155.897461, 4141.538574, 4134.358887, 4125.641113, 4138.461426, 4145.127930, 4136.922852, 4276.922852, 4177.436035, 3246.000000, 8211.000000, 8281.000000, 0.000000, 0.000000, 0.000000, 0.000000, 886.666672, 1545658573.870667, 4.000000, 4.000000, 4.000000, 4.000000, 4.000000, 4.000000, 4.000000, 4.000000, 4.000000, 4.000000, 4.000000, 4.000000, 4.000000, 4.000000, 4.000000, 4.000000
92.000000, 0.000000, 4141.538574, 4153.333008, 4155.897461, 4140.512695, 4146.153809, 4152.307617, 4140.000000, 4132.307617, 4123.076660, 4136.922852, 4146.153809, 4141.538574, 4284.615234, 4177.436035, 3517.000000, 8211.000000, 8281.000000, 0.000000, 0.000000, 0.000000, 0.000000, 894.871803, 1545658573.878872, 4.000000, 4.000000, 4.000000, 4.000000, 4.000000, 4.000000, 4.000000, 4.000000, 4.000000, 4.000000, 4.000000, 4.000000, 4.000000, 4.000000, 4.000000, 4.000000
93.000000, 0.000000, 4158.974121, 4171.794922, 4174.871582, 4168.205078, 4163.076660, 4165.127930, 4156.410156, 4147.692383, 4140.512695, 4143.589844, 4155.897461, 4156.922852, 4297.948730, 4189.743652, 3148.000000, 8217.000000, 8263.000000, 0.000000, 0.000000, 0.000000, 0.000000, 902.564110, 1545658573.886564, 4.000000, 4.000000, 4.000000, 4.000000, 4.000000, 4.000000, 4.000000, 4.000000, 4.000000, 4.000000, 4.000000, 4.000000, 4.000000, 4.000000, 4.000000, 4.000000
94.000000, 0.000000, 4155.384277, 4171.281738, 4171.281738, 4162.563965, 4168.205078, 4178.974121, 4157.948730, 4154.358887, 4149.743652, 4141.025391, 4158.461426, 4155.897461, 4286.153809, 4187.179199, 3551.000000, 8217.000000, 8263.000000, 0.000000, 0.000000, 0.000000, 0.000000, 910.256416, 1545658573.894256, 4.000000, 4.000000, 4.000000, 4.000000, 4.000000, 4.000000, 4.000000, 4.000000, 4.000000, 4.000000, 4.000000, 4.000000, 4.000000, 4.000000, 4.000000, 4.000000
95.000000, 0.000000, 4150.769043, 4171.281738, 4167.692383, 4150.256348, 4164.615234, 4177.436035, 4156.410156, 4153.333008, 4150.256348, 4145.641113, 4170.256348, 4158.974121, 4288.717773, 4188.717773, 3246.000000, 8223.000000, 8250.000000, 0.000000, 0.000000, 0.000000, 0.000000, 917.948730, 1545658573.901949, 4.000000, 4.000000, 4.000000, 4.000000, 4.000000, 4.000000, 4.000000, 4.000000, 4.000000, 4.000000, 4.000000, 4.000000, 4.000000, 4.000000, 4.000000, 4.000000
96.000000, 0.000000, 4178.974121, 4197.948730, 4194.871582, 4175.384277, 4181.025391, 4183.589844, 4178.974121, 4171.794922, 4175.897461, 4183.589844, 4187.179199, 4181.025391, 4326.153809, 4212.307617, 3517.000000, 8223.000000, 8250.000000, 0.000000, 0.000000, 0.000000, 0.000000, 925.641037, 1545658573.909641, 4.000000, 4.000000, 4.000000, 4.000000, 4.000000, 4.000000, 4.000000, 4.000000, 4.000000, 4.000000, 4.000000, 4.000000, 4.000000, 4.000000, 4.000000, 4.000000
97.000000, 0.000000, 4199.487305, 4216.922852, 4216.410156, 4200.000000, 4197.436035, 4200.000000, 4198.461426, 4184.615234, 4197.436035, 4207.179199, 4205.641113, 4195.897461, 4360.000000, 4228.205078, 3148.000000, 8228.000000, 8239.000000, 0.000000, 0.000000, 0.000000, 0.000000, 933.333344, 1545658573.917333, 4.000000, 4.000000, 4.000000, 4.000000, 4.000000, 4.000000, 4.000000, 4.000000, 4.000000, 4.000000, 4.000000, 4.000000, 4.000000, 4.000000, 4.000000, 4.000000
98.000000, 0.000000, 4175.897461, 4196.410156, 4198.461426, 4181.538574, 4175.897461, 4188.717773, 4184.615234, 4158.974121, 4174.871582, 4183.076660, 4202.563965, 4184.102539, 4345.641113, 4215.384277, 3551.000000, 8228.000000, 8239.000000, 0.000000, 0.000000, 0.000000, 0.000000, 941.538467, 1545658573.925539, 4.000000, 4.000000, 4.000000, 4.000000, 4.000000, 4.000000, 4.000000, 4.000000, 4.000000, 4.000000, 4.000000, 4.000000, 4.000000, 4.000000, 4.000000, 4.000000
99.000000, 0.000000, 4150.769043, 4167.692383, 4172.820313, 4148.717773, 4151.794922, 4169.230469, 4166.666504, 4139.487305, 4153.846191, 4170.256348, 4183.589844, 4162.563965, 4326.666504, 4194.358887, 3246.000000, 8224.000000, 8213.000000, 0.000000, 0.000000, 0.000000, 0.000000, 949.230774, 1545658573.933231, 4.000000, 4.000000, 4.000000, 4.000000, 4.000000, 4.000000, 4.000000, 4.000000, 4.000000, 4.000000, 4.000000, 4.000000, 4.000000, 4.000000, 4.000000, 4.000000
100.000000, 0.000000, 4154.358887, 4165.641113, 4172.820313, 4143.589844, 4157.436035, 4170.256348, 4164.615234, 4146.666504, 4153.846191, 4168.717773, 4193.846191, 4161.025391, 4346.153809, 4193.333008, 3517.000000, 8224.000000, 8213.000000, 0.000000, 0.000000, 0.000000, 0.000000, 956.923080, 1545658573.940923, 4.000000, 4.000000, 4.000000, 4.000000, 4.000000, 4.000000, 4.000000, 4.000000, 4.000000, 4.000000, 4.000000, 4.000000, 4.000000, 4.000000, 4.000000, 4.000000
101.000000, 0.000000, 4151.281738, 4166.153809, 4175.897461, 4145.641113, 4158.461426, 4169.230469, 4153.846191, 4139.487305, 4146.666504, 4155.897461, 4221.538574, 4165.127930, 4360.512695, 4197.948730, 3148.000000, 8220.000000, 8203.000000, 0.000000, 0.000000, 0.000000, 0.000000, 964.615387, 1545658573.948616, 4.000000, 4.000000, 4.000000, 4.000000, 4.000000, 4.000000, 4.000000, 4.000000, 4.000000, 4.000000, 4.000000, 4.000000, 4.000000, 4.000000, 4.000000, 4.000000
102.000000, 0.000000, 4144.102539, 4164.102539, 4175.897461, 4144.615234, 4154.871582, 4164.102539, 4148.717773, 4134.871582, 4153.333008, 4167.179199, 4232.820313, 4162.051270, 4372.820313, 4196.922852, 3551.000000, 8220.000000, 8203.000000, 0.000000, 0.000000, 0.000000, 0.000000, 972.307693, 1545658573.956308, 4.000000, 4.000000, 4.000000, 4.000000, 4.000000, 4.000000, 4.000000, 4.000000, 4.000000, 4.000000, 4.000000, 4.000000, 4.000000, 4.000000, 4.000000, 4.000000
103.000000, 0.000000, 4151.281738, 4176.410156, 4178.974121, 4151.281738, 4167.179199, 4172.820313, 4161.025391, 4148.717773, 4171.281738, 4193.333008, 4258.974121, 4160.512695, 4415.384277, 4196.410156, 3246.000000, 8205.000000, 8187.000000, 0.000000, 0.000000, 0.000000, 0.000000, 980.512833, 1545658573.964513, 4.000000, 4.000000, 4.000000, 4.000000, 4.000000, 4.000000, 4.000000, 4.000000, 4.000000, 4.000000, 4.000000, 4.000000, 4.000000, 4.000000, 4.000000, 4.000000
104.000000, 0.000000, 4135.897461, 4169.743652, 4162.563965, 4144.615234, 4158.974121, 4166.153809, 4150.256348, 4135.384277, 4143.589844, 4165.641113, 4289.230469, 4147.179199, 4437.948730, 4181.025391, 3517.000000, 8205.000000, 8187.000000, 0.000000, 0.000000, 0.000000, 0.000000, 988.205139, 1545658573.972205, 4.000000, 4.000000, 4.000000, 4.000000, 4.000000, 4.000000, 4.000000, 4.000000, 4.000000, 4.000000, 4.000000, 4.000000, 4.000000, 4.000000, 4.000000, 4.000000
105.000000, 0.000000, 4102.563965, 4141.538574, 4131.794922, 4117.436035, 4131.281738, 4137.436035, 4122.051270, 4106.153809, 4102.563965, 4116.410156, 4267.179199, 4120.000000, 4425.641113, 4152.307617, 3148.000000, 8203.000000, 8185.000000, 0.000000, 0.000000, 0.000000, 0.000000, 995.897446, 1545658573.979897, 4.000000, 4.000000, 4.000000, 4.000000, 4.000000, 4.000000, 4.000000, 4.000000, 4.000000, 4.000000, 4.000000, 4.000000, 4.000000, 4.000000, 4.000000, 4.000000
106.000000, 0.000000, 4106.666504, 4149.743652, 4132.307617, 4114.871582, 4131.281738, 4132.307617, 4127.692383, 4106.666504, 4106.666504, 4125.127930, 4280.000000, 4114.358887, 4467.692383, 4150.769043, 3551.000000, 8203.000000, 8185.000000, 0.000000, 0.000000, 0.000000, 1.000000, 3.589752, 1545658573.987590, 4.000000, 4.000000, 4.000000, 4.000000, 4.000000, 4.000000, 4.000000, 4.000000, 4.000000, 4.000000, 4.000000, 4.000000, 4.000000, 4.000000, 4.000000, 4.000000
107.000000, 0.000000, 4133.846191, 4188.717773, 4157.948730, 4146.666504, 4151.794922, 4156.410156, 4154.358887, 4129.743652, 4135.897461, 4166.153809, 4357.435547, 4132.820313, 4547.179199, 4173.846191, 3246.000000, 8189.000000, 8172.000000, 0.000000, 0.000000, 0.000000, 1.000000, 11.282059, 1545658573.995282, 4.000000, 4.000000, 4.000000, 4.000000, 4.000000, 4.000000, 4.000000, 4.000000, 4.000000, 4.000000, 4.000000, 4.000000, 4.000000, 4.000000, 4.000000, 4.000000
108.000000, 0.000000, 4148.205078, 4212.820313, 4178.461426, 4171.281738, 4171.281738, 4181.025391, 4167.692383, 4153.846191, 4167.179199, 4194.358887, 4400.000000, 4148.205078, 4595.897461, 4188.717773, 3517.000000, 8189.000000, 8172.000000, 0.000000, 0.000000, 0.000000, 1.000000, 18.974365, 1545658574.002974, 4.000000, 4.000000, 4.000000, 4.000000, 4.000000, 4.000000, 4.000000, 4.000000, 4.000000, 4.000000, 4.000000, 4.000000, 4.000000, 4.000000, 4.000000, 4.000000
109.000000, 0.000000, 4156.410156, 4220.000000, 4188.717773, 4173.333008, 4170.769043, 4184.102539, 4181.025391, 4168.717773, 4175.384277, 4193.846191, 4440.000000, 4164.615234, 4637.948730, 4200.000000, 3148.000000, 8179.000000, 8172.000000, 0.000000, 0.000000, 0.000000, 1.000000, 27.179489, 1545658574.011179, 4.000000, 4.000000, 4.000000, 4.000000, 4.000000, 4.000000, 4.000000, 4.000000, 4.000000, 4.000000, 4.000000, 4.000000, 4.000000, 4.000000, 4.000000, 4.000000
110.000000, 0.000000, 4156.410156, 4218.461426, 4188.205078, 4167.692383, 4154.871582, 4176.922852, 4189.743652, 4167.179199, 4158.461426, 4181.025391, 4507.692383, 4172.820313, 4686.153809, 4207.692383, 3551.000000, 8179.000000, 8172.000000, 0.000000, 0.000000, 0.000000, 1.000000, 34.871796, 1545658574.018872, 4.000000, 4.000000, 4.000000, 4.000000, 4.000000, 4.000000, 4.000000, 4.000000, 4.000000, 4.000000, 4.000000, 4.000000, 4.000000, 4.000000, 4.000000, 4.000000
111.000000, 0.000000, 4151.794922, 4217.436035, 4184.615234, 4170.256348, 4161.025391, 4179.487305, 4176.922852, 4165.127930, 4162.051270, 4186.153809, 4530.769043, 4165.641113, 4721.025391, 4202.563965, 3246.000000, 8158.000000, 8164.000000, 0.000000, 0.000000, 0.000000, 1.000000, 42.564102, 1545658574.026564, 4.000000, 4.000000, 4.000000, 4.000000, 4.000000, 4.000000, 4.000000, 4.000000, 4.000000, 4.000000, 4.000000, 4.000000, 4.000000, 4.000000, 4.000000, 4.000000
112.000000, 0.000000, 4145.127930, 4223.076660, 4176.922852, 4166.666504, 4172.307617, 4177.436035, 4161.025391, 4165.127930, 4176.922852, 4196.922852, 4534.358887, 4151.794922, 4740.512695, 4188.717773, 3517.000000, 8158.000000, 8164.000000, 0.000000, 0.000000, 0.000000, 1.000000, 50.256409, 1545658574.034256, 4.000000, 4.000000, 4.000000, 4.000000, 4.000000, 4.000000, 4.000000, 4.000000, 4.000000, 4.000000, 4.000000, 4.000000, 4.000000, 4.000000, 4.000000, 4.000000
113.000000, 0.000000, 4125.127930, 4218.974121, 4156.410156, 4145.641113, 4157.436035, 4157.948730, 4144.615234, 4144.615234, 4154.358887, 4185.641113, 4557.948730, 4131.794922, 4749.743652, 4167.179199, 3148.000000, 8151.000000, 8163.000000, 0.000000, 0.000000, 0.000000, 1.000000, 57.948730, 1545658574.041949, 4.000000, 4.000000, 4.000000, 4.000000, 4.000000, 4.000000, 4.000000, 4.000000, 4.000000, 4.000000, 4.000000, 4.000000, 4.000000, 4.000000, 4.000000, 4.000000
114.000000, 0.000000, 4108.717773, 4212.820313, 4144.615234, 4142.051270, 4146.666504, 4148.205078, 4134.871582, 4121.025391, 4115.897461, 4167.179199, 4562.563965, 4115.897461, 4749.230469, 4151.281738, 3551.000000, 8151.000000, 8163.000000, 0.000000, 0.000000, 0.000000, 1.000000, 65.641022, 1545658574.049641, 4.000000, 4.000000, 4.000000, 4.000000, 4.000000, 4.000000, 4.000000, 4.000000, 4.000000, 4.000000, 4.000000, 4.000000, 4.000000, 4.000000, 4.000000, 4.000000
115.000000, 0.000000, 4113.333008, 4222.051270, 4151.794922, 4152.820313, 4151.281738, 4160.512695, 4145.641113, 4122.563965, 4115.897461, 4171.281738, 4577.948730, 4117.948730, 4764.102539, 4157.436035, 3246.000000, 8136.000000, 8178.000000, 0.000000, 0.000000, 0.000000, 1.000000, 73.846161, 1545658574.057846, 4.000000, 4.000000, 4.000000, 4.000000, 4.000000, 4.000000, 4.000000, 4.000000, 4.000000, 4.000000, 4.000000, 4.000000, 4.000000, 4.000000, 4.000000, 4.000000
116.000000, 0.000000, 4132.307617, 4247.692383, 4168.717773, 4154.871582, 4158.461426, 4169.230469, 4162.051270, 4144.102539, 4149.743652, 4185.641113, 4636.922852, 4134.358887, 4827.692383, 4181.025391, 3517.000000, 8136.000000, 8178.000000, 0.000000, 0.000000, 0.000000, 1.000000, 81.538452, 1545658574.065538, 4.000000, 4.000000, 4.000000, 4.000000, 4.000000, 4.000000, 4.000000, 4.000000, 4.000000, 4.000000, 4.000000, 4.000000, 4.000000, 4.000000, 4.000000, 4.000000
117.000000, 0.000000, 4146.666504, 4279.487305, 4184.102539, 4169.743652, 4170.769043, 4170.256348, 4154.871582, 4157.436035, 4164.102539, 4195.897461, 4681.025391, 4149.743652, 4879.486816, 4195.384277, 3148.000000, 8132.000000, 8187.000000, 0.000000, 0.000000, 0.000000, 1.000000, 89.230774, 1545658574.073231, 4.000000, 4.000000, 4.000000, 4.000000, 4.000000, 4.000000, 4.000000, 4.000000, 4.000000, 4.000000, 4.000000, 4.000000, 4.000000, 4.000000, 4.000000, 4.000000
118.000000, 0.000000, 4137.436035, 4281.538574, 4177.436035, 4178.461426, 4162.563965, 4155.384277, 4132.820313, 4137.436035, 4136.410156, 4190.769043, 4693.333008, 4147.692383, 4880.000000, 4187.179199, 3551.000000, 8132.000000, 8187.000000, 0.000000, 0.000000, 0.000000, 1.000000, 96.923065, 1545658574.080923, 4.000000, 4.000000, 4.000000, 4.000000, 4.000000, 4.000000, 4.000000, 4.000000, 4.000000, 4.000000, 4.000000, 4.000000, 4.000000, 4.000000, 4.000000, 4.000000
119.000000, 0.000000, 4115.897461, 4267.179199, 4153.333008, 4158.974121, 4138.461426, 4129.743652, 4124.102539, 4112.820313, 4114.358887, 4172.307617, 4692.307617, 4129.743652, 4887.692383, 4170.256348, 3246.000000, 8128.000000, 8180.000000, 0.000000, 0.000000, 0.000000, 1.000000, 104.615387, 1545658574.088615, 4.000000, 4.000000, 4.000000, 4.000000, 4.000000, 4.000000, 4.000000, 4.000000, 4.000000, 4.000000, 4.000000, 4.000000, 4.000000, 4.000000, 4.000000, 4.000000
120.000000, 0.000000, 4113.333008, 4277.436035, 4146.153809, 4152.307617, 4133.846191, 4120.512695, 4121.025391, 4109.743652, 4118.974121, 4165.641113, 4700.000000, 4124.102539, 4920.000000, 4168.717773, 3517.000000, 8128.000000, 8180.000000, 0.000000, 0.000000, 0.000000, 1.000000, 112.307709, 1545658574.096308, 4.000000, 4.000000, 4.000000, 4.000000, 4.000000, 4.000000, 4.000000, 4.000000, 4.000000, 4.000000, 4.000000, 4.000000, 4.000000, 4.000000, 4.000000, 4.000000
121.000000, 0.000000, 4129.230469, 4297.948730, 4159.487305, 4163.589844, 4137.948730, 4130.769043, 4117.948730, 4115.384277, 4118.461426, 4173.333008, 4745.127930, 4141.025391, 4953.846191, 4185.127930, 3148.000000, 8124.000000, 8178.000000, 0.000000, 0.000000, 0.000000, 1.000000, 120.512817, 1545658574.104513, 4.000000, 4.000000, 4.000000, 4.000000, 4.000000, 4.000000, 4.000000, 4.000000, 4.000000, 4.000000, 4.000000, 4.000000, 4.000000, 4.000000, 4.000000, 4.000000
122.000000, 0.000000, 4145.127930, 4317.436035, 4178.461426, 4176.410156, 4143.076660, 4146.153809, 4137.436035, 4134.358887, 4135.384277, 4192.307617, 4770.769043, 4158.974121, 4977.948730, 4200.000000, 3551.000000, 8124.000000, 8178.000000, 0.000000, 0.000000, 0.000000, 1.000000, 128.205139, 1545658574.112205, 4.000000, 4.000000, 4.000000, 4.000000, 4.000000, 4.000000, 4.000000, 4.000000, 4.000000, 4.000000, 4.000000, 4.000000, 4.000000, 4.000000, 4.000000, 4.000000
123.000000, 0.000000, 4159.487305, 4346.153809, 4192.307617, 4194.358887, 4158.974121, 4155.897461, 4163.589844, 4153.333008, 4167.179199, 4221.025391, 4767.692383, 4168.205078, 5010.769043, 4205.127930, 3246.000000, 8121.000000, 8185.000000, 0.000000, 0.000000, 0.000000, 1.000000, 135.897430, 1545658574.119897, 4.000000, 4.000000, 4.000000, 4.000000, 4.000000, 4.000000, 4.000000, 4.000000, 4.000000, 4.000000, 4.000000, 4.000000, 4.000000, 4.000000, 4.000000, 4.000000
124.000000, 0.000000, 4161.025391, 4360.000000, 4187.179199, 4202.563965, 4169.743652, 4157.948730, 4158.461426, 4153.333008, 4164.615234, 4230.769043, 4802.563965, 4164.102539, 5031.281738, 4206.153809, 3517.000000, 8121.000000, 8185.000000, 0.000000, 0.000000, 0.000000, 1.000000, 143.589752, 1545658574.127590, 4.000000, 4.000000, 4.000000, 4.000000, 4.000000, 4.000000, 4.000000, 4.000000, 4.000000, 4.000000, 4.000000, 4.000000, 4.000000, 4.000000, 4.000000, 4.000000
125.000000, 0.000000, 4148.717773, 4355.897461, 4172.820313, 4188.717773, 4169.743652, 4162.051270, 4158.974121, 4164.102539, 4157.948730, 4218.974121, 4804.615234, 4150.769043, 5020.000000, 4197.436035, 3148.000000, 8115.000000, 8186.000000, 0.000000, 0.000000, 0.000000, 1.000000, 151.282043, 1545658574.135282, 4.000000, 4.000000, 4.000000, 4.000000, 4.000000, 4.000000, 4.000000, 4.000000, 4.000000, 4.000000, 4.000000, 4.000000, 4.000000, 4.000000, 4.000000, 4.000000
126.000000, 0.000000, 4153.333008, 4372.820313, 4181.025391, 4192.307617, 4169.743652, 4171.794922, 4176.922852, 4178.974121, 4172.307617, 4216.410156, 4785.641113, 4161.025391, 5047.179199, 4202.563965, 3551.000000, 8115.000000, 8186.000000, 0.000000, 0.000000, 0.000000, 1.000000, 158.974365, 1545658574.142974, 4.000000, 4.000000, 4.000000, 4.000000, 4.000000, 4.000000, 4.000000, 4.000000, 4.000000, 4.000000, 4.000000, 4.000000, 4.000000, 4.000000, 4.000000, 4.000000
127.000000, 0.000000, 4174.358887, 4390.256348, 4203.589844, 4231.794922, 4169.743652, 4178.461426, 4161.025391, 4158.974121, 4162.051270, 4215.897461, 4831.794922, 4183.589844, 5094.358887, 4224.102539, 56.000000, 8123.000000, 8175.000000, 0.000000, 0.000000, 0.000000, 1.000000, 167.179474, 1545658574.151180, 4.000000, 4.000000, 4.000000, 4.000000, 4.000000, 4.000000, 4.000000, 4.000000, 4.000000, 4.000000, 4.000000, 4.000000, 4.000000, 4.000000, 4.000000, 4.000000
0.000000, 0.000000, 4171.281738, 4382.563965, 4205.127930, 4238.974121, 4166.666504, 4173.333008, 4141.538574, 4124.615234, 4133.333008, 4207.692383, 4848.205078, 4174.871582, 5050.256348, 4217.436035, 3342.000000, 8123.000000, 8175.000000, 0.000000, 0.000000, 0.000000, 1.000000, 174.871796, 1545658574.158872, 4.000000, 4.000000, 4.000000, 4.000000, 4.000000, 4.000000, 4.000000, 4.000000, 4.000000, 4.000000, 4.000000, 4.000000, 4.000000, 4.000000, 4.000000, 4.000000
1.000000, 0.000000, 4149.743652, 4386.153809, 4183.589844, 4201.538574, 4169.743652, 4163.589844, 4165.127930, 4135.897461, 4142.051270, 4208.717773, 4803.076660, 4157.948730, 4984.102539, 4194.871582, 3505.000000, 8126.000000, 8174.000000, 0.000000, 0.000000, 0.000000, 1.000000, 182.564117, 1545658574.166564, 4.000000, 4.000000, 4.000000, 4.000000, 4.000000, 4.000000, 4.000000, 4.000000, 4.000000, 4.000000, 4.000000, 4.000000, 4.000000, 4.000000, 4.000000, 4.000000
2.000000, 0.000000, 4141.538574, 4400.000000, 4169.743652, 4180.000000, 4174.358887, 4161.538574, 4175.384277, 4160.512695, 4162.563965, 4215.897461, 4777.948730, 4152.820313, 5007.692383, 4185.641113, 3322.000000, 8126.000000, 8174.000000, 0.000000, 0.000000, 0.000000, 1.000000, 190.256409, 1545658574.174256, 4.000000, 4.000000, 4.000000, 4.000000, 4.000000, 4.000000, 4.000000, 4.000000, 4.000000, 4.000000, 4.000000, 4.000000, 4.000000, 4.000000, 4.000000, 4.000000
3.000000, 0.000000, 4142.051270, 4405.127930, 4171.281738, 4195.384277, 4168.205078, 4164.615234, 4151.794922, 4140.000000, 4149.230469, 4224.102539, 4758.974121, 4141.538574, 5044.102539, 4177.436035, 3563.000000, 8140.000000, 8174.000000, 0.000000, 0.000000, 0.000000, 1.000000, 197.948730, 1545658574.181949, 4.000000, 4.000000, 4.000000, 4.000000, 4.000000, 4.000000, 4.000000, 4.000000, 4.000000, 4.000000, 4.000000, 4.000000, 4.000000, 4.000000, 4.000000, 4.000000
4.000000, 0.000000, 4141.025391, 4416.410156, 4174.871582, 4213.846191, 4157.436035, 4154.871582, 4138.461426, 4103.076660, 4131.281738, 4229.743652, 4757.948730, 4140.512695, 5024.102539, 4176.922852, 3414.000000, 8140.000000, 8174.000000, 0.000000, 0.000000, 0.000000, 1.000000, 205.641022, 1545658574.189641, 4.000000, 4.000000, 4.000000, 4.000000, 4.000000, 4.000000, 4.000000, 4.000000, 4.000000, 4.000000, 4.000000, 4.000000, 4.000000, 4.000000, 4.000000, 4.000000
5.000000, 0.000000, 4135.897461, 4423.076660, 4167.692383, 4214.871582, 4149.743652, 4130.256348, 4133.333008, 4101.538574, 4128.205078, 4211.794922, 4790.256348, 4142.563965, 4976.922852, 4178.461426, 3502.000000, 8139.000000, 8176.000000, 0.000000, 0.000000, 0.000000, 1.000000, 213.846161, 1545658574.197846, 4.000000, 4.000000, 4.000000, 4.000000, 4.000000, 4.000000, 4.000000, 4.000000, 4.000000, 4.000000, 4.000000, 4.000000, 4.000000, 4.000000, 4.000000, 4.000000
6.000000, 0.000000, 4128.205078, 4422.051270, 4162.563965, 4207.179199, 4153.333008, 4131.794922, 4134.871582, 4136.922852, 4133.846191, 4186.666504, 4758.974121, 4133.846191, 4928.717773, 4167.692383, 3418.000000, 8139.000000, 8176.000000, 0.000000, 0.000000, 0.000000, 1.000000, 221.538452, 1545658574.205539, 4.000000, 4.000000, 4.000000, 4.000000, 4.000000, 4.000000, 4.000000, 4.000000, 4.000000, 4.000000, 4.000000, 4.000000, 4.000000, 4.000000, 4.000000, 4.000000
7.000000, 0.000000, 4137.436035, 4455.384277, 4176.922852, 4211.794922, 4173.333008, 4162.051270, 4161.538574, 4171.794922, 4150.769043, 4210.256348, 4724.615234, 4147.179199, 4952.820313, 4177.436035, 3243.000000, 8119.000000, 8167.000000, 0.000000, 0.000000, 0.000000, 1.000000, 229.230774, 1545658574.213231, 4.000000, 4.000000, 4.000000, 4.000000, 4.000000, 4.000000, 4.000000, 4.000000, 4.000000, 4.000000, 4.000000, 4.000000, 4.000000, 4.000000, 4.000000, 4.000000
8.000000, 0.000000, 4165.127930, 4509.743652, 4204.102539, 4237.948730, 4177.436035, 4172.820313, 4191.281738, 4182.051270, 4175.384277, 4260.512695, 4800.512695, 4175.384277, 5020.000000, 4212.307617, 3427.000000, 8119.000000, 8167.000000, 0.000000, 0.000000, 0.000000, 1.000000, 236.923065, 1545658574.220923, 4.000000, 4.000000, 4.000000, 4.000000, 4.000000, 4.000000, 4.000000, 4.000000, 4.000000, 4.000000, 4.000000, 4.000000, 4.000000, 4.000000, 4.000000, 4.000000
9.000000, 0.000000, 4178.461426, 4528.717773, 4221.538574, 4252.820313, 4169.743652, 4170.256348, 4191.281738, 4155.897461, 4175.897461, 4268.717773, 4828.717773, 4176.922852, 4995.897461, 4224.102539, 3247.000000, 8103.000000, 8167.000000, 0.000000, 0.000000, 0.000000, 1.000000, 244.615387, 1545658574.228616, 4.000000, 4.000000, 4.000000, 4.000000, 4.000000, 4.000000, 4.000000, 4.000000, 4.000000, 4.000000, 4.000000, 4.000000, 4.000000, 4.000000, 4.000000, 4.000000
10.000000, 0.000000, 4173.333008, 4535.384277, 4217.436035, 4258.974121, 4190.256348, 4178.461426, 4165.641113, 4117.948730, 4148.717773, 4239.487305, 4728.717773, 4167.692383, 4917.435547, 4207.692383, 3572.000000, 8103.000000, 8167.000000, 0.000000, 0.000000, 0.000000, 1.000000, 252.820526, 1545658574.236820, 4.000000, 4.000000, 4.000000, 4.000000, 4.000000, 4.000000, 4.000000, 4.000000, 4.000000, 4.000000, 4.000000, 4.000000, 4.000000, 4.000000, 4.000000, 4.000000
11.000000, 0.000000, 4178.461426, 4566.153809, 4216.922852, 4280.000000, 4211.794922, 4182.563965, 4150.256348, 4122.051270, 4150.256348, 4243.589844, 4724.615234, 4171.794922, 4910.256348, 4207.179199, 3250.000000, 8083.000000, 8170.000000, 0.000000, 0.000000, 0.000000, 1.000000, 260.512817, 1545658574.244513, 4.000000, 4.000000, 4.000000, 4.000000, 4.000000, 4.000000, 4.000000, 4.000000, 4.000000, 4.000000, 4.000000, 4.000000, 4.000000, 4.000000, 4.000000, 4.000000
12.000000, 0.000000, 4190.256348, 4584.102539, 4231.794922, 4282.563965, 4211.794922, 4184.102539, 4166.153809, 4148.205078, 4182.563965, 4285.127930, 4814.358887, 4177.436035, 4948.717773, 4222.051270, 3476.000000, 8083.000000, 8170.000000, 0.000000, 0.000000, 0.000000, 1.000000, 268.205139, 1545658574.252205, 4.000000, 4.000000, 4.000000, 4.000000, 4.000000, 4.000000, 4.000000, 4.000000, 4.000000, 4.000000, 4.000000, 4.000000, 4.000000, 4.000000, 4.000000, 4.000000
13.000000, 0.000000, 4184.102539, 4571.794922, 4231.794922, 4276.410156, 4202.563965, 4188.717773, 4181.025391, 4160.512695, 4191.281738, 4285.641113, 4773.333008, 4169.230469, 4933.333008, 4213.846191, 3144.000000, 8071.000000, 8152.000000, 0.000000, 0.000000, 0.000000, 1.000000, 275.897430, 1545658574.259897, 4.000000, 4.000000, 4.000000, 4.000000, 4.000000, 4.000000, 4.000000, 4.000000, 4.000000, 4.000000, 4.000000, 4.000000, 4.000000, 4.000000, 4.000000, 4.000000
14.000000, 0.000000, 4175.897461, 4576.922852, 4221.025391, 4276.922852, 4195.384277, 4192.820313, 4186.153809, 4190.769043, 4177.948730, 4250.769043, 4717.948730, 4168.717773, 4881.025391, 4204.615234, 3572.000000, 8071.000000, 8152.000000, 0.000000, 0.000000, 0.000000, 1.000000, 283.589752, 1545658574.267590, 4.000000, 4.000000, 4.000000, 4.000000, 4.000000, 4.000000, 4.000000, 4.000000, 4.000000, 4.000000, 4.000000, 4.000000, 4.000000, 4.000000, 4.000000, 4.000000
15.000000, 0.000000, 4185.127930, 4602.563965, 4225.127930, 4264.102539, 4204.102539, 4195.384277, 4197.948730, 4220.512695, 4175.384277, 4248.205078, 4793.333008, 4184.102539, 4872.307617, 4223.589844, 3250.000000, 8010.000000, 8058.000000, 0.000000, 0.000000, 0.000000, 1.000000, 291.282043, 1545658574.275282, 4.000000, 4.000000, 4.000000, 4.000000, 4.000000, 4.000000, 4.000000, 4.000000, 4.000000, 4.000000, 4.000000, 4.000000, 4.000000, 4.000000, 4.000000, 4.000000
16.000000, 0.000000, 4180.512695, 4596.922852, 4223.589844, 4270.256348, 4213.333008, 4194.871582, 4202.563965, 4176.410156, 4182.051270, 4278.974121, 4784.615234, 4170.769043, 4866.666504, 4215.384277, 0.000000, 8010.000000, 8058.000000, 0.000000, 0.000000, 0.000000, 1.000000, 299.487183, 1545658574.283487, 4.000000, 4.000000, 4.000000, 4.000000, 4.000000, 4.000000, 4.000000, 4.000000, 4.000000, 4.000000, 4.000000, 4.000000, 4.000000, 4.000000, 4.000000, 4.000000
17.000000, 0.000000, 4155.384277, 4568.717773, 4201.538574, 4285.641113, 4193.846191, 4187.179199, 4191.281738, 4113.846191, 4185.641113, 4304.102539, 4683.076660, 4135.384277, 4840.512695, 4180.000000, 0.000000, 7964.000000, 8014.000000, 0.000000, 0.000000, 0.000000, 1.000000, 307.179504, 1545658574.291179, 4.000000, 4.000000, 4.000000, 4.000000, 4.000000, 4.000000, 4.000000, 4.000000, 4.000000, 4.000000, 4.000000, 4.000000, 4.000000, 4.000000, 4.000000, 4.000000
18.000000, 0.000000, 4156.410156, 4565.641113, 4197.948730, 4258.974121, 4178.461426, 4178.461426, 4169.230469, 4129.230469, 4175.897461, 4289.230469, 4716.410156, 4144.615234, 4829.230469, 4191.281738, 0.000000, 7964.000000, 8014.000000, 0.000000, 0.000000, 0.000000, 1.000000, 314.871765, 1545658574.298872, 4.000000, 4.000000, 4.000000, 4.000000, 4.000000, 4.000000, 4.000000, 4.000000, 4.000000, 4.000000, 4.000000, 4.000000, 4.000000, 4.000000, 4.000000, 4.000000
19.000000, 0.000000, 4177.436035, 4577.948730, 4216.410156, 4237.948730, 4193.333008, 4169.743652, 4151.794922, 4172.820313, 4169.230469, 4271.794922, 4782.051270, 4175.897461, 4831.281738, 4217.948730, 0.000000, 7892.000000, 8003.000000, 0.000000, 0.000000, 0.000000, 1.000000, 322.564087, 1545658574.306564, 4.000000, 4.000000, 4.000000, 4.000000, 4.000000, 4.000000, 4.000000, 4.000000, 4.000000, 4.000000, 4.000000, 4.000000, 4.000000, 4.000000, 4.000000, 4.000000
20.000000, 0.000000, 4166.153809, 4572.307617, 4206.666504, 4249.743652, 4177.948730, 4149.743652, 4142.051270, 4160.000000, 4173.846191, 4282.563965, 4744.102539, 4160.512695, 4811.281738, 4199.487305, 0.000000, 7892.000000, 8003.000000, 0.000000, 0.000000, 0.000000, 1.000000, 330.256409, 1545658574.314256, 4.000000, 4.000000, 4.000000, 4.000000, 4.000000, 4.000000, 4.000000, 4.000000, 4.000000, 4.000000, 4.000000, 4.000000, 4.000000, 4.000000, 4.000000, 4.000000
21.000000, 0.000000, 4140.512695, 4564.102539, 4185.641113, 4237.436035, 4148.717773, 4138.461426, 4139.487305, 4133.333008, 4161.025391, 4277.948730, 4735.897461, 4139.487305, 4780.512695, 4185.127930, 0.000000, 7854.000000, 8015.000000, 0.000000, 0.000000, 0.000000, 1.000000, 337.948730, 1545658574.321949, 4.000000, 4.000000, 4.000000, 4.000000, 4.000000, 4.000000, 4.000000, 4.000000, 4.000000, 4.000000, 4.000000, 4.000000, 4.000000, 4.000000, 4.000000, 4.000000
22.000000, 0.000000, 4129.230469, 4556.922852, 4180.512695, 4217.948730, 4142.563965, 4134.871582, 4134.871582, 4137.948730, 4137.436035, 4248.717773, 4734.871582, 4135.897461, 4755.384277, 4183.589844, 0.000000, 7854.000000, 8015.000000, 0.000000, 0.000000, 0.000000, 1.000000, 346.153870, 1545658574.330154, 4.000000, 4.000000, 4.000000, 4.000000, 4.000000, 4.000000, 4.000000, 4.000000, 4.000000, 4.000000, 4.000000, 4.000000, 4.000000, 4.000000, 4.000000, 4.000000
23.000000, 0.000000, 4118.461426, 4546.666504, 4168.205078, 4222.051270, 4132.820313, 4129.743652, 4136.922852, 4155.897461, 4147.179199, 4249.230469, 4682.051270, 4118.461426, 4733.846191, 4162.051270, 0.000000, 7804.000000, 8034.000000, 0.000000, 0.000000, 0.000000, 1.000000, 353.846130, 1545658574.337846, 4.000000, 4.000000, 4.000000, 4.000000, 4.000000, 4.000000, 4.000000, 4.000000, 4.000000, 4.000000, 4.000000, 4.000000, 4.000000, 4.000000, 4.000000, 4.000000
24.000000, 0.000000, 4125.641113, 4553.846191, 4171.281738, 4242.563965, 4134.871582, 4145.641113, 4156.922852, 4168.717773, 4177.948730, 4278.461426, 4673.333008, 4122.563965, 4740.512695, 4162.051270, 0.000000, 7804.000000, 8034.000000, 0.000000, 0.000000, 0.000000, 1.000000, 361.538452, 1545658574.345539, 4.000000, 4.000000, 4.000000, 4.000000, 4.000000, 4.000000, 4.000000, 4.000000, 4.000000, 4.000000, 4.000000, 4.000000, 4.000000, 4.000000, 4.000000, 4.000000
25.000000, 0.000000, 4136.922852, 4549.743652, 4189.230469, 4257.948730, 4155.897461, 4163.076660, 4164.102539, 4175.384277, 4181.025391, 4278.461426, 4684.102539, 4140.000000, 4723.076660, 4176.410156, 0.000000, 7782.000000, 8028.000000, 0.000000, 0.000000, 0.000000, 1.000000, 369.230774, 1545658574.353231, 4.000000, 4.000000, 4.000000, 4.000000, 4.000000, 4.000000, 4.000000, 4.000000, 4.000000, 4.000000, 4.000000, 4.000000, 4.000000, 4.000000, 4.000000, 4.000000
26.000000, 0.000000, 4113.333008, 4527.692383, 4170.769043, 4233.846191, 4151.794922, 4146.153809, 4139.487305, 4155.897461, 4151.281738, 4248.717773, 4641.538574, 4115.897461, 4673.333008, 4153.333008, 0.000000, 7782.000000, 8028.000000, 0.000000, 0.000000, 0.000000, 1.000000, 376.923096, 1545658574.360923, 4.000000, 4.000000, 4.000000, 4.000000, 4.000000, 4.000000, 4.000000, 4.000000, 4.000000, 4.000000, 4.000000, 4.000000, 4.000000, 4.000000, 4.000000, 4.000000
27.000000, 0.000000, 4101.025391, 4550.256348, 4151.794922, 4210.256348, 4129.230469, 4128.717773, 4132.820313, 4112.307617, 4126.666504, 4240.000000, 4630.256348, 4098.461426, 4674.871582, 4144.615234, 0.000000, 7749.000000, 7963.000000, 0.000000, 0.000000, 0.000000, 1.000000, 384.615356, 1545658574.368615, 4.000000, 4.000000, 4.000000, 4.000000, 4.000000, 4.000000, 4.000000, 4.000000, 4.000000, 4.000000, 4.000000, 4.000000, 4.000000, 4.000000, 4.000000, 4.000000
28.000000, 0.000000, 4133.846191, 4604.615234, 4185.641113, 4236.922852, 4150.769043, 4157.948730, 4172.820313, 4123.076660, 4156.922852, 4285.641113, 4682.051270, 4141.538574, 4709.230469, 4185.641113, 0.000000, 7749.000000, 7963.000000, 0.000000, 0.000000, 0.000000, 1.000000, 392.820496, 1545658574.376821, 4.000000, 4.000000, 4.000000, 4.000000, 4.000000, 4.000000, 4.000000, 4.000000, 4.000000, 4.000000, 4.000000, 4.000000, 4.000000, 4.000000, 4.000000, 4.000000
29.000000, 0.000000, 4152.307617, 4622.563965, 4210.256348, 4271.794922, 4185.127930, 4180.512695, 4184.615234, 4174.358887, 4209.743652, 4331.281738, 4697.435547, 4166.666504, 4700.000000, 4205.127930, 0.000000, 7742.000000, 7939.000000, 0.000000, 0.000000, 0.000000, 1.000000, 400.512817, 1545658574.384513, 4.000000, 4.000000, 4.000000, 4.000000, 4.000000, 4.000000, 4.000000, 4.000000, 4.000000, 4.000000, 4.000000, 4.000000, 4.000000, 4.000000, 4.000000, 4.000000
30.000000, 0.000000, 4140.512695, 4619.487305, 4195.897461, 4276.922852, 4187.179199, 4163.589844, 4155.384277, 4178.461426, 4206.666504, 4312.820313, 4688.205078, 4150.256348, 4676.922852, 4192.820313, 0.000000, 7742.000000, 7939.000000, 0.000000, 0.000000, 0.000000, 1.000000, 408.205139, 1545658574.392205, 4.000000, 4.000000, 4.000000, 4.000000, 4.000000, 4.000000, 4.000000, 4.000000, 4.000000, 4.000000, 4.000000, 4.000000, 4.000000, 4.000000, 4.000000, 4.000000
31.000000, 0.000000, 4140.000000, 4630.256348, 4192.307617, 4277.436035, 4187.179199, 4165.641113, 4165.127930, 4166.666504, 4182.563965, 4293.846191, 4696.410156, 4152.307617, 4687.179199, 4196.922852, 0.000000, 7748.000000, 7955.000000, 0.000000, 0.000000, 0.000000, 1.000000, 415.897461, 1545658574.399898, 4.000000, 4.000000, 4.000000, 4.000000, 4.000000, 4.000000, 4.000000, 4.000000, 4.000000, 4.000000, 4.000000, 4.000000, 4.000000, 4.000000, 4.000000, 4.000000
32.000000, 0.000000, 4140.512695, 4634.358887, 4193.333008, 4287.179199, 4185.127930, 4183.589844, 4189.230469, 4195.384277, 4191.281738, 4301.025391, 4680.000000, 4154.358887, 4673.846191, 4192.820313, 0.000000, 7748.000000, 7955.000000, 0.000000, 0.000000, 0.000000, 1.000000, 423.589722, 1545658574.407590, 4.000000, 4.000000, 4.000000, 4.000000, 4.000000, 4.000000, 4.000000, 4.000000, 4.000000, 4.000000, 4.000000, 4.000000, 4.000000, 4.000000, 4.000000, 4.000000
33.000000, 0.000000, 4135.384277, 4630.769043, 4188.717773, 4298.461426, 4175.384277, 4175.897461, 4179.487305, 4208.717773, 4202.563965, 4290.256348, 4651.794922, 4142.563965, 4644.102539, 4182.563965, 0.000000, 7748.000000, 7953.000000, 0.000000, 0.000000, 0.000000, 1.000000, 431.282043, 1545658574.415282, 4.000000, 4.000000, 4.000000, 4.000000, 4.000000, 4.000000, 4.000000, 4.000000, 4.000000, 4.000000, 4.000000, 4.000000, 4.000000, 4.000000, 4.000000, 4.000000
34.000000, 1.000000, 4130.256348, 4624.615234, 4183.589844, 4309.743652, 4173.846191, 4170.769043, 4174.871582, 4197.436035, 4194.871582, 4285.127930, 4642.051270, 4138.461426, 4631.281738, 4176.410156, 0.000000, 7742.000000, 7939.000000, 0.000000, 0.000000, 0.000000, 1.000000, 439.487183, 1545658574.423487, 4.000000, 4.000000, 4.000000, 4.000000, 4.000000, 4.000000, 4.000000, 4.000000, 4.000000, 4.000000, 4.000000, 4.000000, 4.000000, 4.000000, 4.000000, 4.000000
35.000000, 1.000000, 4125.127930, 4618.974121, 4178.974121, 4320.512695, 4172.820313, 4166.153809, 4169.743652, 4185.641113, 4186.666504, 4279.487305, 4632.820313, 4134.358887, 4618.461426, 4170.256348, 0.000000, 7736.000000, 7925.000000, 0.000000, 0.000000, 0.000000, 1.000000, 447.179504, 1545658574.431180, 4.000000, 4.000000, 4.000000, 4.000000, 4.000000, 4.000000, 4.000000, 4.000000, 4.000000, 4.000000, 4.000000, 4.000000, 4.000000, 4.000000, 4.000000, 4.000000
36.000000, 1.000000, 4120.000000, 4612.820313, 4174.358887, 4331.281738, 4171.281738, 4161.025391, 4165.127930, 4174.358887, 4178.461426, 4274.358887, 4623.589844, 4130.256348, 4606.153809, 4163.589844, 0.000000, 7730.000000, 7911.000000, 0.000000, 0.000000, 0.000000, 1.000000, 454.871765, 1545658574.438872, 4.000000, 4.000000, 4.000000, 4.000000, 4.000000, 4.000000, 4.000000, 4.000000, 4.000000, 4.000000, 4.000000, 4.000000, 4.000000, 4.000000, 4.000000, 4.000000
37.000000, 1.000000, 4114.871582, 4606.666504, 4169.743652, 4342.051270, 4170.256348, 4155.897461, 4160.512695, 4162.563965, 4170.256348, 4268.717773, 4614.358887, 4125.641113, 4593.333008, 4157.436035, 0.000000, 7724.000000, 7897.000000, 0.000000, 0.000000, 0.000000, 1.000000, 462.564087, 1545658574.446564, 4.000000, 4.000000, 4.000000, 4.000000, 4.000000, 4.000000, 4.000000, 4.000000, 4.000000, 4.000000, 4.000000, 4.000000, 4.000000, 4.000000, 4.000000, 4.000000
38.000000, 1.000000, 4109.743652, 4600.512695, 4164.615234, 4353.333008, 4168.717773, 4150.769043, 4155.897461, 4151.281738, 4162.563965, 4263.589844, 4604.615234, 4121.538574, 4580.512695, 4151.281738, 0.000000, 7718.000000, 7883.000000, 0.000000, 0.000000, 0.000000, 1.000000, 470.256409, 1545658574.454256, 4.000000, 4.000000, 4.000000, 4.000000, 4.000000, 4.000000, 4.000000, 4.000000, 4.000000, 4.000000, 4.000000, 4.000000, 4.000000, 4.000000, 4.000000, 4.000000
39.000000, 0.000000, 4104.615234, 4594.358887, 4159.487305, 4364.102539, 4167.179199, 4145.641113, 4150.769043, 4139.487305, 4154.358887, 4257.948730, 4594.871582, 4116.922852, 4567.692383, 4145.127930, 0.000000, 7708.000000, 7867.000000, 0.000000, 0.000000, 0.000000, 1.000000, 477.948730, 1545658574.461949, 4.000000, 4.000000, 4.000000, 4.000000, 4.000000, 4.000000, 4.000000, 4.000000, 4.000000, 4.000000, 4.000000, 4.000000, 4.000000, 4.000000, 4.000000, 4.000000
40.000000, 0.000000, 4100.512695, 4577.948730, 4156.922852, 4381.538574, 4156.410156, 4131.794922, 4121.538574, 4142.563965, 4154.871582, 4246.666504, 4583.589844, 4107.692383, 4556.410156, 4137.436035, 0.000000, 7708.000000, 7867.000000, 0.000000, 0.000000, 0.000000, 1.000000, 486.153870, 1545658574.470154, 4.000000, 4.000000, 4.000000, 4.000000, 4.000000, 4.000000, 4.000000, 4.000000, 4.000000, 4.000000, 4.000000, 4.000000, 4.000000, 4.000000, 4.000000, 4.000000
41.000000, 0.000000, 4096.410156, 4568.205078, 4151.281738, 4379.487305, 4166.666504, 4133.333008, 4130.769043, 4148.205078, 4167.692383, 4249.230469, 4580.000000, 4106.153809, 4562.051270, 4134.358887, 0.000000, 7701.000000, 7864.000000, 0.000000, 0.000000, 0.000000, 1.000000, 493.846130, 1545658574.477846, 4.000000, 4.000000, 4.000000, 4.000000, 4.000000, 4.000000, 4.000000, 4.000000, 4.000000, 4.000000, 4.000000, 4.000000, 4.000000, 4.000000, 4.000000, 4.000000
42.000000, 0.000000, 4092.820313, 4563.076660, 4141.025391, 4370.256348, 4174.871582, 4142.051270, 4142.051270, 4146.666504, 4162.051270, 4252.820313, 4572.820313, 4105.641113, 4572.820313, 4126.666504, 0.000000, 7701.000000, 7864.000000, 0.000000, 0.000000, 0.000000, 1.000000, 501.538452, 1545658574.485538, 4.000000, 4.000000, 4.000000, 4.000000, 4.000000, 4.000000, 4.000000, 4.000000, 4.000000, 4.000000, 4.000000, 4.000000, 4.000000, 4.000000, 4.000000, 4.000000
43.000000, 0.000000, 4087.179443, 4539.487305, 4135.384277, 4366.666504, 4161.025391, 4142.051270, 4148.717773, 4153.333008, 4149.743652, 4245.641113, 4556.922852, 4101.025391, 4580.000000, 4115.897461, 0.000000, 7702.000000, 7898.000000, 0.000000, 0.000000, 0.000000, 1.000000, 509.230774, 1545658574.493231, 4.000000, 4.000000, 4.000000, 4.000000, 4.000000, 4.000000, 4.000000, 4.000000, 4.000000, 4.000000, 4.000000, 4.000000, 4.000000, 4.000000, 4.000000, 4.000000
44.000000, 0.000000, 4081.025635, 4510.256348, 4135.897461, 4365.127930, 4144.102539, 4131.794922, 4158.461426, 4166.153809, 4153.333008, 4234.358887, 4540.512695, 4093.845947, 4588.205078, 4109.230469, 0.000000, 7702.000000, 7898.000000, 0.000000, 0.000000, 0.000000, 1.000000, 516.923096, 1545658574.500923, 4.000000, 4.000000, 4.000000, 4.000000, 4.000000, 4.000000, 4.000000, 4.000000, 4.000000, 4.000000, 4.000000, 4.000000, 4.000000, 4.000000, 4.000000, 4.000000
45.000000, 0.000000, 4083.589600, 4504.615234, 4141.025391, 4370.769043, 4154.358887, 4128.717773, 4144.102539, 4142.051270, 4150.769043, 4232.820313, 4536.922852, 4097.436035, 4609.743652, 4112.820313, 0.000000, 7714.000000, 7904.000000, 0.000000, 0.000000, 0.000000, 1.000000, 525.128174, 1545658574.509128, 4.000000, 4.000000, 4.000000, 4.000000, 4.000000, 4.000000, 4.000000, 4.000000, 4.000000, 4.000000, 4.000000, 4.000000, 4.000000, 4.000000, 4.000000, 4.000000
46.000000, 0.000000, 4096.922852, 4508.205078, 4149.230469, 4390.769043, 4177.436035, 4140.000000, 4129.230469, 4131.281738, 4153.333008, 4244.102539, 4543.589844, 4112.820313, 4637.948730, 4124.615234, 0.000000, 7714.000000, 7904.000000, 0.000000, 0.000000, 0.000000, 1.000000, 532.820496, 1545658574.516821, 4.000000, 4.000000, 4.000000, 4.000000, 4.000000, 4.000000, 4.000000, 4.000000, 4.000000, 4.000000, 4.000000, 4.000000, 4.000000, 4.000000, 4.000000, 4.000000
47.000000, 0.000000, 4106.666504, 4502.051270, 4163.076660, 4410.769043, 4186.153809, 4156.410156, 4159.487305, 4170.256348, 4178.974121, 4256.410156, 4552.307617, 4127.179199, 4657.948730, 4136.410156, 0.000000, 7724.000000, 7899.000000, 0.000000, 0.000000, 0.000000, 1.000000, 540.512817, 1545658574.524513, 4.000000, 4.000000, 4.000000, 4.000000, 4.000000, 4.000000, 4.000000, 4.000000, 4.000000, 4.000000, 4.000000, 4.000000, 4.000000, 4.000000, 4.000000, 4.000000
48.000000, 0.000000, 4109.230469, 4488.205078, 4168.717773, 4410.256348, 4181.025391, 4162.563965, 4186.666504, 4179.487305, 4191.794922, 4260.512695, 4554.358887, 4134.358887, 4666.153809, 4137.948730, 0.000000, 7724.000000, 7899.000000, 0.000000, 0.000000, 0.000000, 1.000000, 548.205139, 1545658574.532205, 4.000000, 4.000000, 4.000000, 4.000000, 4.000000, 4.000000, 4.000000, 4.000000, 4.000000, 4.000000, 4.000000, 4.000000, 4.000000, 4.000000, 4.000000, 4.000000
49.000000, 0.000000, 4119.487305, 4481.025391, 4170.769043, 4415.897461, 4184.615234, 4168.717773, 4183.589844, 4173.846191, 4186.666504, 4265.127930, 4551.281738, 4141.538574, 4666.153809, 4139.487305, 0.000000, 7729.000000, 7883.000000, 0.000000, 0.000000, 0.000000, 1.000000, 555.897400, 1545658574.539897, 4.000000, 4.000000, 4.000000, 4.000000, 4.000000, 4.000000, 4.000000, 4.000000, 4.000000, 4.000000, 4.000000, 4.000000, 4.000000, 4.000000, 4.000000, 4.000000
50.000000, 0.000000, 4126.666504, 4480.000000, 4178.461426, 4429.230469, 4203.076660, 4182.051270, 4174.358887, 4185.127930, 4188.717773, 4261.538574, 4537.948730, 4151.794922, 4651.281738, 4147.692383, 0.000000, 7729.000000, 7883.000000, 0.000000, 0.000000, 0.000000, 1.000000, 563.589722, 1545658574.547590, 4.000000, 4.000000, 4.000000, 4.000000, 4.000000, 4.000000, 4.000000, 4.000000, 4.000000, 4.000000, 4.000000, 4.000000, 4.000000, 4.000000, 4.000000, 4.000000
51.000000, 0.000000, 4127.179199, 4475.384277, 4186.666504, 4435.897461, 4221.538574, 4189.743652, 4168.205078, 4171.281738, 4187.692383, 4250.256348, 4506.666504, 4154.358887, 4619.487305, 4153.846191, 0.000000, 7759.000000, 7856.000000, 0.000000, 0.000000, 0.000000, 1.000000, 571.794861, 1545658574.555795, 4.000000, 4.000000, 4.000000, 4.000000, 4.000000, 4.000000, 4.000000, 4.000000, 4.000000, 4.000000, 4.000000, 4.000000, 4.000000, 4.000000, 4.000000, 4.000000
52.000000, 0.000000, 4126.153809, 4452.307617, 4181.538574, 4432.820313, 4218.461426, 4186.666504, 4178.974121, 4159.487305, 4174.358887, 4238.461426, 4456.410156, 4146.153809, 4575.897461, 4147.179199, 0.000000, 7759.000000, 7856.000000, 0.000000, 0.000000, 0.000000, 1.000000, 579.487183, 1545658574.563487, 4.000000, 4.000000, 4.000000, 4.000000, 4.000000, 4.000000, 4.000000, 4.000000, 4.000000, 4.000000, 4.000000, 4.000000, 4.000000, 4.000000, 4.000000, 4.000000
53.000000, 0.000000, 4117.436035, 4418.461426, 4168.717773, 4418.461426, 4203.076660, 4177.948730, 4189.230469, 4154.871582, 4157.948730, 4225.641113, 4393.846191, 4137.436035, 4527.179199, 4137.436035, 0.000000, 7781.000000, 7855.000000, 0.000000, 0.000000, 0.000000, 1.000000, 587.179504, 1545658574.571179, 4.000000, 4.000000, 4.000000, 4.000000, 4.000000, 4.000000, 4.000000, 4.000000, 4.000000, 4.000000, 4.000000, 4.000000, 4.000000, 4.000000, 4.000000, 4.000000
54.000000, 0.000000, 4111.281738, 4396.410156, 4167.692383, 4407.692383, 4200.000000, 4169.743652, 4170.256348, 4136.410156, 4153.333008, 4223.589844, 4335.384277, 4135.897461, 4480.000000, 4136.922852, 0.000000, 7781.000000, 7855.000000, 0.000000, 0.000000, 0.000000, 1.000000, 594.871765, 1545658574.578872, 4.000000, 4.000000, 4.000000, 4.000000, 4.000000, 4.000000, 4.000000, 4.000000, 4.000000, 4.000000, 4.000000, 4.000000, 4.000000, 4.000000, 4.000000, 4.000000
55.000000, 0.000000, 4121.538574, 4381.538574, 4173.846191, 4412.307617, 4203.589844, 4169.743652, 4149.743652, 4150.769043, 4170.256348, 4232.307617, 4289.743652, 4140.512695, 4432.307617, 4137.948730, 0.000000, 7848.000000, 7854.000000, 0.000000, 0.000000, 0.000000, 1.000000, 602.564087, 1545658574.586564, 4.000000, 4.000000, 4.000000, 4.000000, 4.000000, 4.000000, 4.000000, 4.000000, 4.000000, 4.000000, 4.000000, 4.000000, 4.000000, 4.000000, 4.000000, 4.000000
56.000000, 0.000000, 4125.127930, 4363.589844, 4174.871582, 4416.922852, 4200.512695, 4165.641113, 4151.794922, 4174.871582, 4186.153809, 4236.922852, 4246.153809, 4141.538574, 4380.000000, 4139.487305, 0.000000, 7848.000000, 7854.000000, 0.000000, 0.000000, 0.000000, 1.000000, 610.256409, 1545658574.594256, 4.000000, 4.000000, 4.000000, 4.000000, 4.000000, 4.000000, 4.000000, 4.000000, 4.000000, 4.000000, 4.000000, 4.000000, 4.000000, 4.000000, 4.000000, 4.000000
57.000000, 0.000000, 4107.692383, 4333.333008, 4162.051270, 4399.487305, 4186.666504, 4148.205078, 4147.179199, 4151.281738, 4177.436035, 4231.281738, 4188.717773, 4129.743652, 4314.871582, 4132.820313, 0.000000, 7877.000000, 7852.000000, 0.000000, 0.000000, 0.000000, 1.000000, 618.461548, 1545658574.602461, 4.000000, 4.000000, 4.000000, 4.000000, 4.000000, 4.000000, 4.000000, 4.000000, 4.000000, 4.000000, 4.000000, 4.000000, 4.000000, 4.000000, 4.000000, 4.000000
58.000000, 0.000000, 4097.436035, 4303.589844, 4148.717773, 4381.025391, 4168.205078, 4131.794922, 4130.769043, 4141.538574, 4165.641113, 4216.922852, 4131.794922, 4116.410156, 4248.205078, 4119.487305, 0.000000, 7877.000000, 7852.000000, 0.000000, 0.000000, 0.000000, 1.000000, 626.153809, 1545658574.610154, 4.000000, 4.000000, 4.000000, 4.000000, 4.000000, 4.000000, 4.000000, 4.000000, 4.000000, 4.000000, 4.000000, 4.000000, 4.000000, 4.000000, 4.000000, 4.000000
59.000000, 0.000000, 4107.179199, 4293.333008, 4157.948730, 4380.000000, 4163.589844, 4134.871582, 4133.333008, 4164.102539, 4161.025391, 4202.563965, 4096.410156, 4122.051270, 4202.563965, 4122.563965, 0.000000, 7928.000000, 7864.000000, 0.000000, 0.000000, 0.000000, 1.000000, 633.846130, 1545658574.617846, 4.000000, 4.000000, 4.000000, 4.000000, 4.000000, 4.000000, 4.000000, 4.000000, 4.000000, 4.000000, 4.000000, 4.000000, 4.000000, 4.000000, 4.000000, 4.000000
60.000000, 0.000000, 4113.846191, 4281.025391, 4171.281738, 4381.025391, 4175.897461, 4151.281738, 4150.256348, 4149.230469, 4151.281738, 4203.076660, 4066.666504, 4132.820313, 4161.025391, 4135.897461, 0.000000, 7928.000000, 7864.000000, 0.000000, 0.000000, 0.000000, 1.000000, 641.538452, 1545658574.625539, 4.000000, 4.000000, 4.000000, 4.000000, 4.000000, 4.000000, 4.000000, 4.000000, 4.000000, 4.000000, 4.000000, 4.000000, 4.000000, 4.000000, 4.000000, 4.000000
61.000000, 0.000000, 4113.333008, 4256.922852, 4168.717773, 4377.948730, 4180.512695, 4152.307617, 4160.000000, 4121.538574, 4137.436035, 4199.487305, 4023.589600, 4127.692383, 4103.589844, 4135.897461, 0.000000, 7961.000000, 7866.000000, 0.000000, 0.000000, 0.000000, 1.000000, 649.230774, 1545658574.633231, 4.000000, 4.000000, 4.000000, 4.000000, 4.000000, 4.000000, 4.000000, 4.000000, 4.000000, 4.000000, 4.000000, 4.000000, 4.000000, 4.000000, 4.000000, 4.000000
62.000000, 0.000000, 4118.461426, 4252.307617, 4167.179199, 4378.461426, 4170.256348, 4136.410156, 4149.230469, 4125.127930, 4120.512695, 4177.948730, 3985.640869, 4121.538574, 4055.897217, 4133.846191, 0.000000, 7961.000000, 7866.000000, 0.000000, 0.000000, 0.000000, 1.000000, 656.923096, 1545658574.640923, 4.000000, 4.000000, 4.000000, 4.000000, 4.000000, 4.000000, 4.000000, 4.000000, 4.000000, 4.000000, 4.000000, 4.000000, 4.000000, 4.000000, 4.000000, 4.000000
63.000000, 0.000000, 4124.102539, 4263.076660, 4171.794922, 4382.051270, 4167.179199, 4130.256348, 4131.794922, 4120.000000, 4105.127930, 4162.051270, 3955.897461, 4120.512695, 4024.102539, 4135.384277, 0.000000, 8033.000000, 7877.000000, 0.000000, 0.000000, 0.000000, 1.000000, 665.128174, 1545658574.649128, 4.000000, 4.000000, 4.000000, 4.000000, 4.000000, 4.000000, 4.000000, 4.000000, 4.000000, 4.000000, 4.000000, 4.000000, 4.000000, 4.000000, 4.000000, 4.000000
64.000000, 0.000000, 4124.615234, 4256.922852, 4165.127930, 4381.538574, 4171.794922, 4131.794922, 4118.461426, 4095.384521, 4105.127930, 4158.974121, 3920.512695, 4112.307617, 3985.128174, 4128.205078, 3436.000000, 8033.000000, 7877.000000, 0.000000, 0.000000, 0.000000, 1.000000, 672.820496, 1545658574.656821, 4.000000, 4.000000, 4.000000, 4.000000, 4.000000, 4.000000, 4.000000, 4.000000, 4.000000, 4.000000, 4.000000, 4.000000, 4.000000, 4.000000, 4.000000, 4.000000
65.000000, 0.000000, 4123.589844, 4246.666504, 4154.358887, 4380.000000, 4167.179199, 4122.563965, 4108.205078, 4088.205078, 4108.717773, 4151.281738, 3888.205078, 4103.076660, 3947.692139, 4123.589844, 3491.000000, 8061.000000, 7897.000000, 0.000000, 0.000000, 0.000000, 1.000000, 680.512817, 1545658574.664513, 4.000000, 4.000000, 4.000000, 4.000000, 4.000000, 4.000000, 4.000000, 4.000000, 4.000000, 4.000000, 4.000000, 4.000000, 4.000000, 4.000000, 4.000000, 4.000000
66.000000, 0.000000, 4123.076660, 4250.256348, 4155.384277, 4374.871582, 4160.512695, 4118.974121, 4114.358887, 4108.717773, 4110.769043, 4147.692383, 3870.256348, 4101.538574, 3923.076904, 4128.717773, 3309.000000, 8061.000000, 7897.000000, 0.000000, 0.000000, 0.000000, 1.000000, 688.205139, 1545658574.672205, 4.000000, 4.000000, 4.000000, 4.000000, 4.000000, 4.000000, 4.000000, 4.000000, 4.000000, 4.000000, 4.000000, 4.000000, 4.000000, 4.000000, 4.000000, 4.000000
67.000000, 0.000000, 4142.051270, 4269.230469, 4173.846191, 4388.205078, 4180.512695, 4144.615234, 4138.974121, 4140.512695, 4139.487305, 4170.256348, 3870.256348, 4119.487305, 3917.948730, 4145.641113, 3554.000000, 8119.000000, 7895.000000, 0.000000, 0.000000, 0.000000, 1.000000, 695.897400, 1545658574.679898, 4.000000, 4.000000, 4.000000, 4.000000, 4.000000, 4.000000, 4.000000, 4.000000, 4.000000, 4.000000, 4.000000, 4.000000, 4.000000, 4.000000, 4.000000, 4.000000
68.000000, 0.000000, 4162.051270, 4283.076660, 4189.743652, 4409.743652, 4204.102539, 4159.487305, 4145.641113, 4145.641113, 4157.436035, 4185.641113, 3867.179443, 4133.846191, 3909.230713, 4158.974121, 3387.000000, 8119.000000, 7895.000000, 0.000000, 0.000000, 0.000000, 1.000000, 703.589722, 1545658574.687590, 4.000000, 4.000000, 4.000000, 4.000000, 4.000000, 4.000000, 4.000000, 4.000000, 4.000000, 4.000000, 4.000000, 4.000000, 4.000000, 4.000000, 4.000000, 4.000000
69.000000, 0.000000, 4154.871582, 4267.179199, 4183.589844, 4402.051270, 4201.538574, 4150.256348, 4134.358887, 4122.051270, 4133.846191, 4168.717773, 3842.051270, 4125.641113, 3875.897461, 4151.281738, 3487.000000, 8140.000000, 7901.000000, 0.000000, 0.000000, 0.000000, 1.000000, 711.794861, 1545658574.695795, 4.000000, 4.000000, 4.000000, 4.000000, 4.000000, 4.000000, 4.000000, 4.000000, 4.000000, 4.000000, 4.000000, 4.000000, 4.000000, 4.000000, 4.000000, 4.000000
70.000000, 0.000000, 4152.307617, 4249.230469, 4184.615234, 4391.281738, 4197.436035, 4160.000000, 4147.179199, 4124.102539, 4126.666504, 4159.487305, 3828.205078, 4123.076660, 3851.281982, 4148.717773, 3410.000000, 8140.000000, 7901.000000, 0.000000, 0.000000, 0.000000, 1.000000, 719.487183, 1545658574.703487, 4.000000, 4.000000, 4.000000, 4.000000, 4.000000, 4.000000, 4.000000, 4.000000, 4.000000, 4.000000, 4.000000, 4.000000, 4.000000, 4.000000, 4.000000, 4.000000
71.000000, 0.000000, 4165.641113, 4248.717773, 4199.487305, 4396.922852, 4201.538574, 4172.307617, 4161.538574, 4142.563965, 4142.051270, 4169.743652, 3832.820313, 4135.897461, 3845.128174, 4164.615234, 3239.000000, 8163.000000, 7907.000000, 0.000000, 0.000000, 0.000000, 1.000000, 727.179504, 1545658574.711179, 4.000000, 4.000000, 4.000000, 4.000000, 4.000000, 4.000000, 4.000000, 4.000000, 4.000000, 4.000000, 4.000000, 4.000000, 4.000000, 4.000000, 4.000000, 4.000000
72.000000, 0.000000, 4160.000000, 4235.897461, 4193.846191, 4385.641113, 4194.871582, 4157.436035, 4159.487305, 4129.743652, 4130.769043, 4161.538574, 3817.435791, 4130.769043, 3820.512695, 4161.538574, 3424.000000, 8163.000000, 7907.000000, 0.000000, 0.000000, 0.000000, 1.000000, 734.871765, 1545658574.718872, 4.000000, 4.000000, 4.000000, 4.000000, 4.000000, 4.000000, 4.000000, 4.000000, 4.000000, 4.000000, 4.000000, 4.000000, 4.000000, 4.000000, 4.000000, 4.000000
73.000000, 0.000000, 4136.922852, 4197.948730, 4168.717773, 4353.333008, 4174.871582, 4138.461426, 4160.512695, 4117.436035, 4108.205078, 4130.256348, 3783.589600, 4108.717773, 3778.974365, 4135.897461, 3241.000000, 8166.000000, 7911.000000, 0.000000, 0.000000, 0.000000, 1.000000, 742.564087, 1545658574.726564, 4.000000, 4.000000, 4.000000, 4.000000, 4.000000, 4.000000, 4.000000, 4.000000, 4.000000, 4.000000, 4.000000, 4.000000, 4.000000, 4.000000, 4.000000, 4.000000
74.000000, 0.000000, 4128.717773, 4177.948730, 4163.589844, 4343.076660, 4165.641113, 4134.358887, 4141.538574, 4117.948730, 4102.563965, 4118.461426, 3770.769043, 4105.641113, 3762.563965, 4132.820313, 3575.000000, 8166.000000, 7911.000000, 0.000000, 0.000000, 0.000000, 1.000000, 750.256409, 1545658574.734256, 4.000000, 4.000000, 4.000000, 4.000000, 4.000000, 4.000000, 4.000000, 4.000000, 4.000000, 4.000000, 4.000000, 4.000000, 4.000000, 4.000000, 4.000000, 4.000000
75.000000, 0.000000, 4149.743652, 4195.384277, 4188.205078, 4364.102539, 4184.615234, 4142.563965, 4117.948730, 4108.205078, 4110.769043, 4141.025391, 3789.743408, 4127.692383, 3780.000000, 4158.461426, 3251.000000, 8179.000000, 7935.000000, 0.000000, 0.000000, 0.000000, 1.000000, 758.461548, 1545658574.742461, 4.000000, 4.000000, 4.000000, 4.000000, 4.000000, 4.000000, 4.000000, 4.000000, 4.000000, 4.000000, 4.000000, 4.000000, 4.000000, 4.000000, 4.000000, 4.000000
76.000000, 0.000000, 4179.487305, 4209.230469, 4213.333008, 4383.589844, 4211.281738, 4153.846191, 4134.358887, 4128.205078, 4144.102539, 4178.974121, 3818.461426, 4150.256348, 3804.615234, 4181.025391, 3542.000000, 8179.000000, 7935.000000, 0.000000, 0.000000, 0.000000, 1.000000, 766.153809, 1545658574.750154, 4.000000, 4.000000, 4.000000, 4.000000, 4.000000, 4.000000, 4.000000, 4.000000, 4.000000, 4.000000, 4.000000, 4.000000, 4.000000, 4.000000, 4.000000, 4.000000
77.000000, 0.000000, 4173.846191, 4188.717773, 4205.127930, 4365.127930, 4208.205078, 4155.897461, 4161.025391, 4170.769043, 4179.487305, 4193.333008, 3818.974365, 4145.641113, 3802.563965, 4176.410156, 3156.000000, 8179.000000, 7937.000000, 0.000000, 0.000000, 0.000000, 1.000000, 773.846130, 1545658574.757846, 4.000000, 4.000000, 4.000000, 4.000000, 4.000000, 4.000000, 4.000000, 4.000000, 4.000000, 4.000000, 4.000000, 4.000000, 4.000000, 4.000000, 4.000000, 4.000000
78.000000, 0.000000, 4150.769043, 4171.281738, 4185.127930, 4340.000000, 4195.897461, 4158.974121, 4164.102539, 4168.717773, 4174.871582, 4176.922852, 3796.410156, 4130.256348, 3783.589600, 4164.615234, 3575.000000, 8179.000000, 7937.000000, 0.000000, 0.000000, 0.000000, 1.000000, 781.538452, 1545658574.765538, 4.000000, 4.000000, 4.000000, 4.000000, 4.000000, 4.000000, 4.000000, 4.000000, 4.000000, 4.000000, 4.000000, 4.000000, 4.000000, 4.000000, 4.000000, 4.000000
79.000000, 0.000000, 4159.487305, 4182.563965, 4192.307617, 4350.256348, 4209.230469, 4178.461426, 4168.717773, 4148.205078, 4159.487305, 4167.692383, 3792.307617, 4136.410156, 3780.512695, 4170.769043, 3251.000000, 8177.000000, 7956.000000, 0.000000, 0.000000, 0.000000, 1.000000, 789.230780, 1545658574.773231, 4.000000, 4.000000, 4.000000, 4.000000, 4.000000, 4.000000, 4.000000, 4.000000, 4.000000, 4.000000, 4.000000, 4.000000, 4.000000, 4.000000, 4.000000, 4.000000
80.000000, 0.000000, 4176.410156, 4189.230469, 4206.153809, 4362.563965, 4224.615234, 4190.769043, 4177.948730, 4156.922852, 4163.076660, 4170.256348, 3797.435791, 4145.127930, 3780.000000, 4177.436035, 3542.000000, 8177.000000, 7956.000000, 0.000000, 0.000000, 0.000000, 1.000000, 797.435908, 1545658574.781436, 4.000000, 4.000000, 4.000000, 4.000000, 4.000000, 4.000000, 4.000000, 4.000000, 4.000000, 4.000000, 4.000000, 4.000000, 4.000000, 4.000000, 4.000000, 4.000000
81.000000, 0.000000, 4169.230469, 4178.974121, 4202.051270, 4353.333008, 4220.000000, 4182.563965, 4176.410156, 4153.333008, 4158.461426, 4164.615234, 3786.153809, 4143.076660, 3771.281982, 4173.333008, 3156.000000, 8174.000000, 7966.000000, 0.000000, 0.000000, 0.000000, 1.000000, 805.128216, 1545658574.789128, 4.000000, 4.000000, 4.000000, 4.000000, 4.000000, 4.000000, 4.000000, 4.000000, 4.000000, 4.000000, 4.000000, 4.000000, 4.000000, 4.000000, 4.000000, 4.000000
82.000000, 0.000000, 4149.230469, 4150.256348, 4184.102539, 4327.692383, 4198.974121, 4165.127930, 4176.410156, 4124.615234, 4132.820313, 4145.127930, 3764.102539, 4133.333008, 3759.487061, 4158.461426, 3575.000000, 8174.000000, 7966.000000, 0.000000, 0.000000, 0.000000, 1.000000, 812.820522, 1545658574.796821, 4.000000, 4.000000, 4.000000, 4.000000, 4.000000, 4.000000, 4.000000, 4.000000, 4.000000, 4.000000, 4.000000, 4.000000, 4.000000, 4.000000, 4.000000, 4.000000
83.000000, 0.000000, 4135.897461, 4116.410156, 4169.230469, 4304.102539, 4181.025391, 4148.205078, 4170.256348, 4116.410156, 4112.820313, 4124.615234, 3748.717773, 4121.538574, 3745.640869, 4139.487305, 3251.000000, 8173.000000, 7955.000000, 0.000000, 0.000000, 0.000000, 1.000000, 820.512829, 1545658574.804513, 4.000000, 4.000000, 4.000000, 4.000000, 4.000000, 4.000000, 4.000000, 4.000000, 4.000000, 4.000000, 4.000000, 4.000000, 4.000000, 4.000000, 4.000000, 4.000000
84.000000, 0.000000, 4135.384277, 4105.641113, 4171.281738, 4294.871582, 4178.974121, 4141.025391, 4146.666504, 4118.461426, 4108.717773, 4118.461426, 3748.717773, 4121.025391, 3743.076904, 4137.948730, 3542.000000, 8173.000000, 7955.000000, 0.000000, 0.000000, 0.000000, 1.000000, 828.205139, 1545658574.812205, 4.000000, 4.000000, 4.000000, 4.000000, 4.000000, 4.000000, 4.000000, 4.000000, 4.000000, 4.000000, 4.000000, 4.000000, 4.000000, 4.000000, 4.000000, 4.000000
85.000000, 0.000000, 4144.102539, 4113.333008, 4184.102539, 4296.922852, 4188.717773, 4148.717773, 4138.974121, 4118.974121, 4122.051270, 4132.307617, 3757.948730, 4132.820313, 3753.845947, 4150.256348, 3156.000000, 8167.000000, 7948.000000, 0.000000, 0.000000, 0.000000, 1.000000, 835.897446, 1545658574.819897, 4.000000, 4.000000, 4.000000, 4.000000, 4.000000, 4.000000, 4.000000, 4.000000, 4.000000, 4.000000, 4.000000, 4.000000, 4.000000, 4.000000, 4.000000, 4.000000
86.000000, 0.000000, 4157.436035, 4126.153809, 4196.410156, 4306.666504, 4207.692383, 4174.871582, 4171.281738, 4139.487305, 4147.179199, 4151.794922, 3769.230713, 4148.717773, 3767.692139, 4162.051270, 3575.000000, 8167.000000, 7948.000000, 0.000000, 0.000000, 0.000000, 1.000000, 844.102573, 1545658574.828103, 4.000000, 4.000000, 4.000000, 4.000000, 4.000000, 4.000000, 4.000000, 4.000000, 4.000000, 4.000000, 4.000000, 4.000000, 4.000000, 4.000000, 4.000000, 4.000000
87.000000, 0.000000, 4168.205078, 4140.000000, 4205.127930, 4318.461426, 4218.461426, 4193.846191, 4191.281738, 4148.205078, 4153.333008, 4156.410156, 3778.974365, 4157.948730, 3785.128174, 4172.307617, 3251.000000, 8149.000000, 7949.000000, 0.000000, 0.000000, 0.000000, 1.000000, 851.794880, 1545658574.835795, 4.000000, 4.000000, 4.000000, 4.000000, 4.000000, 4.000000, 4.000000, 4.000000, 4.000000, 4.000000, 4.000000, 4.000000, 4.000000, 4.000000, 4.000000, 4.000000
88.000000, 0.000000, 4161.538574, 4132.307617, 4197.436035, 4311.281738, 4207.692383, 4176.922852, 4165.127930, 4121.538574, 4132.820313, 4142.563965, 3770.769043, 4147.179199, 3787.179443, 4164.102539, 3542.000000, 8149.000000, 7949.000000, 0.000000, 0.000000, 0.000000, 1.000000, 859.487190, 1545658574.843487, 4.000000, 4.000000, 4.000000, 4.000000, 4.000000, 4.000000, 4.000000, 4.000000, 4.000000, 4.000000, 4.000000, 4.000000, 4.000000, 4.000000, 4.000000, 4.000000
89.000000, 0.000000, 4147.179199, 4107.692383, 4183.589844, 4288.717773, 4200.000000, 4166.153809, 4165.127930, 4117.436035, 4128.205078, 4132.307617, 3756.410156, 4132.820313, 3768.205078, 4144.102539, 3156.000000, 8152.000000, 7951.000000, 0.000000, 0.000000, 0.000000, 1.000000, 867.179497, 1545658574.851179, 4.000000, 4.000000, 4.000000, 4.000000, 4.000000, 4.000000, 4.000000, 4.000000, 4.000000, 4.000000, 4.000000, 4.000000, 4.000000, 4.000000, 4.000000, 4.000000
90.000000, 0.000000, 4152.307617, 4109.230469, 4189.230469, 4288.717773, 4208.717773, 4186.666504, 4203.076660, 4151.794922, 4151.794922, 4146.666504, 3767.692139, 4142.563965, 3774.871582, 4148.717773, 3575.000000, 8152.000000, 7951.000000, 0.000000, 0.000000, 0.000000, 1.000000, 874.871803, 1545658574.858872, 4.000000, 4.000000, 4.000000, 4.000000, 4.000000, 4.000000, 4.000000, 4.000000, 4.000000, 4.000000, 4.000000, 4.000000, 4.000000, 4.000000, 4.000000, 4.000000
91.000000, 0.000000, 4159.487305, 4115.384277, 4191.794922, 4291.794922, 4205.127930, 4187.179199, 4202.051270, 4155.384277, 4152.307617, 4154.871582, 3775.897461, 4149.230469, 3796.923096, 4155.384277, 3251.000000, 8170.000000, 7980.000000, 0.000000, 0.000000, 0.000000, 1.000000, 882.564110, 1545658574.866564, 4.000000, 4.000000, 4.000000, 4.000000, 4.000000, 4.000000, 4.000000, 4.000000, 4.000000, 4.000000, 4.000000, 4.000000, 4.000000, 4.000000, 4.000000, 4.000000
92.000000, 0.000000, 4151.281738, 4102.563965, 4183.076660, 4278.974121, 4194.871582, 4170.256348, 4180.000000, 4136.410156, 4140.000000, 4143.076660, 3763.076904, 4137.436035, 3796.410156, 4139.487305, 3542.000000, 8170.000000, 7980.000000, 0.000000, 0.000000, 0.000000, 1.000000, 890.769241, 1545658574.874769, 4.000000, 4.000000, 4.000000, 4.000000, 4.000000, 4.000000, 4.000000, 4.000000, 4.000000, 4.000000, 4.000000, 4.000000, 4.000000, 4.000000, 4.000000, 4.000000
93.000000, 0.000000, 4140.512695, 4087.692139, 4181.025391, 4270.256348, 4193.333008, 4178.974121, 4194.871582, 4144.615234, 4150.256348, 4132.307617, 3750.256348, 4127.179199, 3787.179443, 4127.179199, 3156.000000, 8191.000000, 7990.000000, 0.000000, 0.000000, 0.000000, 1.000000, 898.461548, 1545658574.882461, 4.000000, 4.000000, 4.000000, 4.000000, 4.000000, 4.000000, 4.000000, 4.000000, 4.000000, 4.000000, 4.000000, 4.000000, 4.000000, 4.000000, 4.000000, 4.000000
94.000000, 0.000000, 4132.820313, 4073.845947, 4173.846191, 4258.974121, 4185.641113, 4189.230469, 4216.922852, 4164.102539, 4154.358887, 4126.666504, 3743.076904, 4122.051270, 3781.538330, 4121.025391, 3575.000000, 8191.000000, 7990.000000, 0.000000, 0.000000, 0.000000, 1.000000, 906.153854, 1545658574.890154, 4.000000, 4.000000, 4.000000, 4.000000, 4.000000, 4.000000, 4.000000, 4.000000, 4.000000, 4.000000, 4.000000, 4.000000, 4.000000, 4.000000, 4.000000, 4.000000
95.000000, 0.000000, 4135.384277, 4073.333252, 4169.743652, 4252.307617, 4184.615234, 4180.000000, 4189.743652, 4150.769043, 4138.461426, 4129.743652, 3749.743408, 4123.076660, 3790.256348, 4121.025391, 3251.000000, 8237.000000, 8005.000000, 0.000000, 0.000000, 0.000000, 1.000000, 913.846161, 1545658574.897846, 4.000000, 4.000000, 4.000000, 4.000000, 4.000000, 4.000000, 4.000000, 4.000000, 4.000000, 4.000000, 4.000000, 4.000000, 4.000000, 4.000000, 4.000000, 4.000000
96.000000, 0.000000, 4144.102539, 4086.153809, 4179.487305, 4263.076660, 4193.846191, 4172.307617, 4153.846191, 4122.051270, 4135.384277, 4141.025391, 3764.615234, 4132.820313, 3812.820313, 4132.820313, 3542.000000, 8237.000000, 8005.000000, 0.000000, 0.000000, 0.000000, 1.000000, 921.538467, 1545658574.905539, 4.000000, 4.000000, 4.000000, 4.000000, 4.000000, 4.000000, 4.000000, 4.000000, 4.000000, 4.000000, 4.000000, 4.000000, 4.000000, 4.000000, 4.000000, 4.000000
97.000000, 0.000000, 4150.256348, 4092.820313, 4188.717773, 4271.281738, 4204.102539, 4180.000000, 4176.922852, 4144.615234, 4160.512695, 4152.820313, 3774.358887, 4144.102539, 3833.845947, 4141.538574, 3156.000000, 8255.000000, 8024.000000, 0.000000, 0.000000, 0.000000, 1.000000, 929.230774, 1545658574.913231, 4.000000, 4.000000, 4.000000, 4.000000, 4.000000, 4.000000, 4.000000, 4.000000, 4.000000, 4.000000, 4.000000, 4.000000, 4.000000, 4.000000, 4.000000, 4.000000
98.000000, 0.000000, 4157.436035, 4095.897217, 4198.461426, 4269.230469, 4214.358887, 4195.897461, 4216.410156, 4184.615234, 4196.922852, 4178.461426, 3786.666504, 4153.333008, 3848.717773, 4142.563965, 3575.000000, 8255.000000, 8024.000000, 0.000000, 0.000000, 0.000000, 1.000000, 937.435898, 1545658574.921436, 4.000000, 4.000000, 4.000000, 4.000000, 4.000000, 4.000000, 4.000000, 4.000000, 4.000000, 4.000000, 4.000000, 4.000000, 4.000000, 4.000000, 4.000000, 4.000000
99.000000, 0.000000, 4157.948730, 4089.230713, 4202.563965, 4263.589844, 4213.846191, 4206.666504, 4218.461426, 4180.512695, 4205.641113, 4190.769043, 3783.589600, 4155.384277, 3843.589600, 4139.487305, 3251.000000, 8280.000000, 8024.000000, 0.000000, 0.000000, 0.000000, 1.000000, 945.128220, 1545658574.929128, 4.000000, 4.000000, 4.000000, 4.000000, 4.000000, 4.000000, 4.000000, 4.000000, 4.000000, 4.000000, 4.000000, 4.000000, 4.000000, 4.000000, 4.000000, 4.000000
100.000000, 0.000000, 4148.717773, 4073.333252, 4195.384277, 4256.410156, 4206.666504, 4207.179199, 4220.512695, 4164.102539, 4176.410156, 4157.436035, 3769.230713, 4148.717773, 3835.897461, 4135.897461, 3542.000000, 8280.000000, 8024.000000, 0.000000, 0.000000, 0.000000, 1.000000, 952.820526, 1545658574.936821, 4.000000, 4.000000, 4.000000, 4.000000, 4.000000, 4.000000, 4.000000, 4.000000, 4.000000, 4.000000, 4.000000, 4.000000, 4.000000, 4.000000, 4.000000, 4.000000
101.000000, 0.000000, 4157.436035, 4072.307617, 4201.025391, 4255.384277, 4203.589844, 4201.025391, 4231.281738, 4170.256348, 4165.641113, 4141.538574, 3788.717773, 4159.487305, 3869.230713, 4146.153809, 3156.000000, 8284.000000, 8014.000000, 0.000000, 0.000000, 0.000000, 1.000000, 960.512833, 1545658574.944513, 4.000000, 4.000000, 4.000000, 4.000000, 4.000000, 4.000000, 4.000000, 4.000000, 4.000000, 4.000000, 4.000000, 4.000000, 4.000000, 4.000000, 4.000000, 4.000000
