title:127 - d, recorded:24.12.18 15.37.25, timestamp started:2018-12-24T15:37:25.176+02:00;1545658645.176, sampling:128, subject:, labels:COUNTER INTERPOLATED AF3 F7 F3 FC5 T7 P7 O1 O2 P8 T8 FC6 F4 F8 AF4 RAW_CQ GYROX GYROY MARKER MARKER_HARDWARE SYNC TIME_STAMP_s TIME_STAMP_ms TimeStamp CQ_AF3 CQ_F7 CQ_F3 CQ_FC5 CQ_T7 CQ_P7 CQ_O1 CQ_O2 CQ_P8 CQ_T8 CQ_FC6 CQ_F4 CQ_F8 CQ_AF4 CQ_CMS CQ_DRL, chan:40, samples:3859, units:emotiv
48.000000, 0.000000, 4182.563965, 4183.076660, 4162.563965, 4162.563965, 4176.410156, 4174.358887, 4166.666504, 4183.076660, 4185.641113, 4188.205078, 4203.589844, 4227.692383, 4174.358887, 4171.794922, 0.000000, 8221.000000, 8173.000000, 1.000000, 6.000000, 0.000000, 0.000000, 0.000000, 1545658645.176000, 4.000000, 4.000000, 4.000000, 4.000000, 4.000000, 4.000000, 4.000000, 4.000000, 4.000000, 4.000000, 4.000000, 4.000000, 4.000000, 4.000000, 4.000000, 4.000000
49.000000, 0.000000, 4187.692383, 4186.153809, 4171.794922, 4164.615234, 4185.641113, 4187.179199, 4182.051270, 4190.769043, 4191.281738, 4190.769043, 4207.179199, 4235.384277, 4181.025391, 4177.948730, 0.000000, 8231.000000, 8179.000000, 0.000000, 0.000000, 0.000000, 0.000000, 8.205139, 1545658645.184205, 4.000000, 4.000000, 4.000000, 4.000000, 4.000000, 4.000000, 4.000000, 4.000000, 4.000000, 4.000000, 4.000000, 4.000000, 4.000000, 4.000000, 4.000000, 4.000000
50.000000, 0.000000, 4185.127930, 4186.153809, 4168.717773, 4161.025391, 4189.743652, 4189.230469, 4182.563965, 4182.563965, 4183.076660, 4183.589844, 4203.589844, 4232.820313, 4171.281738, 4181.025391, 0.000000, 8231.000000, 8179.000000, 0.000000, 0.000000, 0.000000, 0.000000, 15.897461, 1545658645.191897, 4.000000, 4.000000, 4.000000, 4.000000, 4.000000, 4.000000, 4.000000, 4.000000, 4.000000, 4.000000, 4.000000, 4.000000, 4.000000, 4.000000, 4.000000, 4.000000
51.000000, 0.000000, 4182.051270, 4177.948730, 4161.025391, 4152.307617, 4177.948730, 4177.436035, 4172.307617, 4181.025391, 4181.538574, 4176.922852, 4196.410156, 4227.692383, 4161.025391, 4176.922852, 0.000000, 8229.000000, 8176.000000, 0.000000, 0.000000, 0.000000, 0.000000, 23.589752, 1545658645.199590, 4.000000, 4.000000, 4.000000, 4.000000, 4.000000, 4.000000, 4.000000, 4.000000, 4.000000, 4.000000, 4.000000, 4.000000, 4.000000, 4.000000, 4.000000, 4.000000
52.000000, 0.000000, 4202.563965, 4190.769043, 4177.436035, 4170.256348, 4186.666504, 4188.717773, 4188.717773, 4213.846191, 4205.127930, 4192.820313, 4208.205078, 4240.000000, 4177.436035, 4192.820313, 0.000000, 8229.000000, 8176.000000, 0.000000, 0.000000, 0.000000, 0.000000, 31.282074, 1545658645.207282, 4.000000, 4.000000, 4.000000, 4.000000, 4.000000, 4.000000, 4.000000, 4.000000, 4.000000, 4.000000, 4.000000, 4.000000, 4.000000, 4.000000, 4.000000, 4.000000
53.000000, 0.000000, 4225.641113, 4215.384277, 4196.922852, 4196.922852, 4210.256348, 4211.794922, 4212.307617, 4220.000000, 4214.358887, 4208.717773, 4227.692383, 4255.384277, 4195.384277, 4217.436035, 0.000000, 8226.000000, 8180.000000, 0.000000, 0.000000, 0.000000, 0.000000, 38.974365, 1545658645.214974, 4.000000, 4.000000, 4.000000, 4.000000, 4.000000, 4.000000, 4.000000, 4.000000, 4.000000, 4.000000, 4.000000, 4.000000, 4.000000, 4.000000, 4.000000, 4.000000
54.000000, 0.000000, 4210.769043, 4200.000000, 4180.512695, 4183.076660, 4199.487305, 4204.102539, 4201.538574, 4189.743652, 4195.384277, 4192.307617, 4214.871582, 4239.487305, 4175.897461, 4203.589844, 0.000000, 8226.000000, 8180.000000, 0.000000, 0.000000, 0.000000, 0.000000, 47.179504, 1545658645.223179, 4.000000, 4.000000, 4.000000, 4.000000, 4.000000, 4.000000, 4.000000, 4.000000, 4.000000, 4.000000, 4.000000, 4.000000, 4.000000, 4.000000, 4.000000, 4.000000
55.000000, 0.000000, 4196.922852, 4182.051270, 4165.127930, 4167.179199, 4183.589844, 4195.897461, 4193.333008, 4185.127930, 4191.281738, 4178.974121, 4197.948730, 4223.589844, 4156.922852, 4185.127930, 0.000000, 8228.000000, 8185.000000, 0.000000, 0.000000, 0.000000, 0.000000, 54.871796, 1545658645.230872, 4.000000, 4.000000, 4.000000, 4.000000, 4.000000, 4.000000, 4.000000, 4.000000, 4.000000, 4.000000, 4.000000, 4.000000, 4.000000, 4.000000, 4.000000, 4.000000
56.000000, 0.000000, 4211.281738, 4200.000000, 4180.000000, 4184.615234, 4200.512695, 4213.333008, 4207.179199, 4199.487305, 4206.153809, 4199.487305, 4209.743652, 4231.794922, 4169.743652, 4198.461426, 0.000000, 8228.000000, 8185.000000, 0.000000, 0.000000, 0.000000, 0.000000, 62.564117, 1545658645.238564, 4.000000, 4.000000, 4.000000, 4.000000, 4.000000, 4.000000, 4.000000, 4.000000, 4.000000, 4.000000, 4.000000, 4.000000, 4.000000, 4.000000, 4.000000, 4.000000
57.000000, 0.000000, 4212.307617, 4201.025391, 4178.461426, 4185.127930, 4204.615234, 4212.820313, 4204.615234, 4196.922852, 4204.102539, 4202.051270, 4207.179199, 4227.692383, 4168.717773, 4198.974121, 0.000000, 8228.000000, 8195.000000, 0.000000, 0.000000, 0.000000, 0.000000, 70.256409, 1545658645.246256, 4.000000, 4.000000, 4.000000, 4.000000, 4.000000, 4.000000, 4.000000, 4.000000, 4.000000, 4.000000, 4.000000, 4.000000, 4.000000, 4.000000, 4.000000, 4.000000
58.000000, 0.000000, 4198.974121, 4173.333008, 4154.358887, 4157.436035, 4183.076660, 4190.769043, 4195.897461, 4205.127930, 4201.025391, 4185.127930, 4190.256348, 4212.307617, 4150.769043, 4180.000000, 0.000000, 8228.000000, 8195.000000, 0.000000, 0.000000, 0.000000, 0.000000, 77.948730, 1545658645.253949, 4.000000, 4.000000, 4.000000, 4.000000, 4.000000, 4.000000, 4.000000, 4.000000, 4.000000, 4.000000, 4.000000, 4.000000, 4.000000, 4.000000, 4.000000, 4.000000
59.000000, 0.000000, 4199.487305, 4167.692383, 4151.794922, 4148.717773, 4180.512695, 4184.615234, 4193.846191, 4212.820313, 4204.615234, 4188.205078, 4193.846191, 4213.846191, 4149.230469, 4182.051270, 0.000000, 8226.000000, 8191.000000, 0.000000, 0.000000, 0.000000, 0.000000, 85.641022, 1545658645.261641, 4.000000, 4.000000, 4.000000, 4.000000, 4.000000, 4.000000, 4.000000, 4.000000, 4.000000, 4.000000, 4.000000, 4.000000, 4.000000, 4.000000, 4.000000, 4.000000
60.000000, 0.000000, 4202.051270, 4174.358887, 4158.974121, 4155.897461, 4190.256348, 4188.717773, 4192.820313, 4203.076660, 4194.871582, 4193.333008, 4196.922852, 4215.897461, 4147.692383, 4189.230469, 0.000000, 8226.000000, 8191.000000, 0.000000, 0.000000, 0.000000, 0.000000, 93.846161, 1545658645.269846, 4.000000, 4.000000, 4.000000, 4.000000, 4.000000, 4.000000, 4.000000, 4.000000, 4.000000, 4.000000, 4.000000, 4.000000, 4.000000, 4.000000, 4.000000, 4.000000
61.000000, 0.000000, 4202.563965, 4168.205078, 4154.358887, 4152.820313, 4179.487305, 4186.666504, 4194.358887, 4196.922852, 4182.563965, 4180.512695, 4186.153809, 4214.871582, 4135.897461, 4183.589844, 0.000000, 8211.000000, 8192.000000, 0.000000, 0.000000, 0.000000, 0.000000, 101.538483, 1545658645.277539, 4.000000, 4.000000, 4.000000, 4.000000, 4.000000, 4.000000, 4.000000, 4.000000, 4.000000, 4.000000, 4.000000, 4.000000, 4.000000, 4.000000, 4.000000, 4.000000
62.000000, 0.000000, 4204.102539, 4164.615234, 4154.358887, 4152.307617, 4170.769043, 4178.461426, 4183.076660, 4173.846191, 4172.307617, 4168.717773, 4180.512695, 4214.871582, 4128.205078, 4182.563965, 0.000000, 8211.000000, 8192.000000, 0.000000, 0.000000, 0.000000, 0.000000, 109.230774, 1545658645.285231, 4.000000, 4.000000, 4.000000, 4.000000, 4.000000, 4.000000, 4.000000, 4.000000, 4.000000, 4.000000, 4.000000, 4.000000, 4.000000, 4.000000, 4.000000, 4.000000
63.000000, 0.000000, 4202.051270, 4168.205078, 4155.384277, 4154.358887, 4174.871582, 4172.820313, 4164.615234, 4151.281738, 4164.615234, 4167.692383, 4178.461426, 4206.153809, 4124.102539, 4183.076660, 0.000000, 8206.000000, 8195.000000, 0.000000, 0.000000, 0.000000, 0.000000, 116.923096, 1545658645.292923, 4.000000, 4.000000, 4.000000, 4.000000, 4.000000, 4.000000, 4.000000, 4.000000, 4.000000, 4.000000, 4.000000, 4.000000, 4.000000, 4.000000, 4.000000, 4.000000
64.000000, 0.000000, 4201.025391, 4168.205078, 4150.769043, 4149.230469, 4175.897461, 4176.410156, 4166.666504, 4162.563965, 4168.717773, 4167.179199, 4177.948730, 4200.512695, 4124.615234, 4179.487305, 3345.000000, 8206.000000, 8195.000000, 0.000000, 0.000000, 0.000000, 0.000000, 124.615417, 1545658645.300616, 4.000000, 4.000000, 4.000000, 4.000000, 4.000000, 4.000000, 4.000000, 4.000000, 4.000000, 4.000000, 4.000000, 4.000000, 4.000000, 4.000000, 4.000000, 4.000000
65.000000, 0.000000, 4215.897461, 4178.974121, 4158.974121, 4158.461426, 4184.615234, 4191.794922, 4187.179199, 4184.102539, 4184.615234, 4174.358887, 4191.794922, 4214.871582, 4138.461426, 4191.794922, 3523.000000, 8186.000000, 8167.000000, 0.000000, 0.000000, 0.000000, 0.000000, 132.307678, 1545658645.308308, 4.000000, 4.000000, 4.000000, 4.000000, 4.000000, 4.000000, 4.000000, 4.000000, 4.000000, 4.000000, 4.000000, 4.000000, 4.000000, 4.000000, 4.000000, 4.000000
66.000000, 0.000000, 4234.871582, 4201.025391, 4175.384277, 4182.563965, 4204.102539, 4203.589844, 4199.487305, 4192.820313, 4200.000000, 4191.281738, 4205.641113, 4232.307617, 4162.051270, 4211.794922, 3315.000000, 8186.000000, 8167.000000, 0.000000, 0.000000, 0.000000, 0.000000, 140.512817, 1545658645.316513, 4.000000, 4.000000, 4.000000, 4.000000, 4.000000, 4.000000, 4.000000, 4.000000, 4.000000, 4.000000, 4.000000, 4.000000, 4.000000, 4.000000, 4.000000, 4.000000
67.000000, 0.000000, 4235.384277, 4205.127930, 4176.410156, 4185.641113, 4204.615234, 4207.179199, 4205.641113, 4200.000000, 4205.641113, 4200.512695, 4207.179199, 4231.794922, 4182.051270, 4212.820313, 3587.000000, 8181.000000, 8157.000000, 0.000000, 0.000000, 0.000000, 0.000000, 148.205139, 1545658645.324205, 4.000000, 4.000000, 4.000000, 4.000000, 4.000000, 4.000000, 4.000000, 4.000000, 4.000000, 4.000000, 4.000000, 4.000000, 4.000000, 4.000000, 4.000000, 4.000000
68.000000, 0.000000, 4220.000000, 4190.769043, 4167.179199, 4166.666504, 4190.256348, 4202.051270, 4205.641113, 4206.666504, 4202.051270, 4190.769043, 4202.051270, 4222.051270, 4191.794922, 4200.000000, 3413.000000, 8181.000000, 8157.000000, 0.000000, 0.000000, 0.000000, 0.000000, 155.897461, 1545658645.331897, 4.000000, 4.000000, 4.000000, 4.000000, 4.000000, 4.000000, 4.000000, 4.000000, 4.000000, 4.000000, 4.000000, 4.000000, 4.000000, 4.000000, 4.000000, 4.000000
69.000000, 0.000000, 4206.666504, 4178.461426, 4156.410156, 4155.897461, 4185.127930, 4191.281738, 4196.922852, 4199.487305, 4189.230469, 4178.461426, 4192.307617, 4214.358887, 4200.000000, 4189.743652, 3495.000000, 8169.000000, 8118.000000, 0.000000, 0.000000, 0.000000, 0.000000, 163.589722, 1545658645.339590, 4.000000, 4.000000, 4.000000, 4.000000, 4.000000, 4.000000, 4.000000, 4.000000, 4.000000, 4.000000, 4.000000, 4.000000, 4.000000, 4.000000, 4.000000, 4.000000
70.000000, 0.000000, 4190.769043, 4164.102539, 4134.358887, 4145.641113, 4176.410156, 4182.563965, 4187.179199, 4186.666504, 4173.333008, 4170.256348, 4180.000000, 4202.051270, 4212.307617, 4171.281738, 3433.000000, 8169.000000, 8118.000000, 0.000000, 0.000000, 0.000000, 0.000000, 171.282043, 1545658645.347282, 4.000000, 4.000000, 4.000000, 4.000000, 4.000000, 4.000000, 4.000000, 4.000000, 4.000000, 4.000000, 4.000000, 4.000000, 4.000000, 4.000000, 4.000000, 4.000000
71.000000, 0.000000, 4172.307617, 4141.025391, 4117.436035, 4126.666504, 4163.589844, 4180.000000, 4183.589844, 4182.051270, 4166.666504, 4158.461426, 4167.179199, 4185.641113, 4219.487305, 4152.820313, 3253.000000, 8171.000000, 8100.000000, 0.000000, 0.000000, 0.000000, 0.000000, 178.974365, 1545658645.354974, 4.000000, 4.000000, 4.000000, 4.000000, 4.000000, 4.000000, 4.000000, 4.000000, 4.000000, 4.000000, 4.000000, 4.000000, 4.000000, 4.000000, 4.000000, 4.000000
72.000000, 0.000000, 4172.820313, 4135.384277, 4128.205078, 4127.179199, 4166.666504, 4184.102539, 4192.820313, 4192.820313, 4174.358887, 4157.948730, 4165.127930, 4188.205078, 4228.717773, 4152.307617, 3444.000000, 8171.000000, 8100.000000, 0.000000, 0.000000, 0.000000, 0.000000, 187.179504, 1545658645.363179, 4.000000, 4.000000, 4.000000, 4.000000, 4.000000, 4.000000, 4.000000, 4.000000, 4.000000, 4.000000, 4.000000, 4.000000, 4.000000, 4.000000, 4.000000, 4.000000
73.000000, 0.000000, 4183.589844, 4147.179199, 4140.000000, 4141.025391, 4172.307617, 4182.563965, 4193.846191, 4195.384277, 4183.076660, 4168.717773, 4174.871582, 4203.076660, 4245.127930, 4156.922852, 3263.000000, 8179.000000, 8096.000000, 0.000000, 0.000000, 0.000000, 0.000000, 194.871826, 1545658645.370872, 4.000000, 4.000000, 4.000000, 4.000000, 4.000000, 4.000000, 4.000000, 4.000000, 4.000000, 4.000000, 4.000000, 4.000000, 4.000000, 4.000000, 4.000000, 4.000000
74.000000, 0.000000, 4184.102539, 4155.897461, 4139.487305, 4140.512695, 4166.153809, 4172.307617, 4182.563965, 4186.666504, 4184.102539, 4170.256348, 4183.076660, 4205.127930, 4257.948730, 4154.358887, 3554.000000, 8179.000000, 8096.000000, 0.000000, 0.000000, 0.000000, 0.000000, 202.564087, 1545658645.378564, 4.000000, 4.000000, 4.000000, 4.000000, 4.000000, 4.000000, 4.000000, 4.000000, 4.000000, 4.000000, 4.000000, 4.000000, 4.000000, 4.000000, 4.000000, 4.000000
75.000000, 0.000000, 4184.102539, 4162.563965, 4144.615234, 4141.538574, 4165.127930, 4170.769043, 4181.538574, 4187.179199, 4183.589844, 4167.179199, 4183.076660, 4206.666504, 4261.538574, 4157.948730, 3241.000000, 8182.000000, 8084.000000, 0.000000, 0.000000, 0.000000, 0.000000, 210.256409, 1545658645.386256, 4.000000, 4.000000, 4.000000, 4.000000, 4.000000, 4.000000, 4.000000, 4.000000, 4.000000, 4.000000, 4.000000, 4.000000, 4.000000, 4.000000, 4.000000, 4.000000
76.000000, 0.000000, 4188.717773, 4170.769043, 4152.820313, 4155.897461, 4171.794922, 4175.384277, 4182.051270, 4183.076660, 4177.436035, 4170.769043, 4181.025391, 4215.897461, 4262.051270, 4164.102539, 3528.000000, 8182.000000, 8084.000000, 0.000000, 0.000000, 0.000000, 0.000000, 217.948730, 1545658645.393949, 4.000000, 4.000000, 4.000000, 4.000000, 4.000000, 4.000000, 4.000000, 4.000000, 4.000000, 4.000000, 4.000000, 4.000000, 4.000000, 4.000000, 4.000000, 4.000000
77.000000, 0.000000, 4189.743652, 4175.384277, 4153.846191, 4161.538574, 4171.794922, 4172.307617, 4180.512695, 4168.205078, 4169.743652, 4167.692383, 4182.051270, 4219.487305, 4264.102539, 4162.563965, 3151.000000, 8190.000000, 8090.000000, 0.000000, 0.000000, 0.000000, 0.000000, 225.641052, 1545658645.401641, 4.000000, 4.000000, 4.000000, 4.000000, 4.000000, 4.000000, 4.000000, 4.000000, 4.000000, 4.000000, 4.000000, 4.000000, 4.000000, 4.000000, 4.000000, 4.000000
78.000000, 0.000000, 4186.666504, 4173.846191, 4154.358887, 4155.897461, 4168.717773, 4169.230469, 4182.051270, 4164.615234, 4169.743652, 4158.974121, 4180.000000, 4216.922852, 4262.563965, 4158.461426, 3554.000000, 8190.000000, 8090.000000, 0.000000, 0.000000, 0.000000, 0.000000, 233.846130, 1545658645.409846, 4.000000, 4.000000, 4.000000, 4.000000, 4.000000, 4.000000, 4.000000, 4.000000, 4.000000, 4.000000, 4.000000, 4.000000, 4.000000, 4.000000, 4.000000, 4.000000
79.000000, 0.000000, 4184.615234, 4163.076660, 4153.333008, 4149.743652, 4165.127930, 4170.256348, 4174.871582, 4169.230469, 4169.230469, 4153.846191, 4168.205078, 4210.256348, 4249.743652, 4154.871582, 3241.000000, 8198.000000, 8102.000000, 0.000000, 0.000000, 0.000000, 0.000000, 241.538452, 1545658645.417539, 4.000000, 4.000000, 4.000000, 4.000000, 4.000000, 4.000000, 4.000000, 4.000000, 4.000000, 4.000000, 4.000000, 4.000000, 4.000000, 4.000000, 4.000000, 4.000000
80.000000, 0.000000, 4181.538574, 4156.410156, 4151.794922, 4146.153809, 4164.102539, 4169.743652, 4165.641113, 4172.820313, 4168.205078, 4151.794922, 4162.563965, 4204.615234, 4235.897461, 4149.743652, 3528.000000, 8198.000000, 8102.000000, 0.000000, 0.000000, 0.000000, 0.000000, 249.230774, 1545658645.425231, 4.000000, 4.000000, 4.000000, 4.000000, 4.000000, 4.000000, 4.000000, 4.000000, 4.000000, 4.000000, 4.000000, 4.000000, 4.000000, 4.000000, 4.000000, 4.000000
81.000000, 0.000000, 4174.871582, 4160.512695, 4149.743652, 4146.666504, 4168.717773, 4171.281738, 4171.794922, 4186.153809, 4171.794922, 4153.846191, 4168.717773, 4203.589844, 4231.794922, 4143.076660, 3151.000000, 8200.000000, 8130.000000, 0.000000, 0.000000, 0.000000, 0.000000, 256.923096, 1545658645.432923, 4.000000, 4.000000, 4.000000, 4.000000, 4.000000, 4.000000, 4.000000, 4.000000, 4.000000, 4.000000, 4.000000, 4.000000, 4.000000, 4.000000, 4.000000, 4.000000
82.000000, 0.000000, 4165.127930, 4160.000000, 4140.512695, 4145.127930, 4169.743652, 4168.717773, 4170.256348, 4191.794922, 4172.307617, 4154.358887, 4165.127930, 4202.051270, 4229.230469, 4137.436035, 3554.000000, 8200.000000, 8130.000000, 0.000000, 0.000000, 0.000000, 0.000000, 264.615417, 1545658645.440615, 4.000000, 4.000000, 4.000000, 4.000000, 4.000000, 4.000000, 4.000000, 4.000000, 4.000000, 4.000000, 4.000000, 4.000000, 4.000000, 4.000000, 4.000000, 4.000000
83.000000, 0.000000, 4172.307617, 4161.538574, 4141.538574, 4145.641113, 4171.281738, 4165.641113, 4164.615234, 4175.897461, 4168.717773, 4153.846191, 4160.000000, 4205.641113, 4228.205078, 4144.102539, 3241.000000, 8196.000000, 8142.000000, 0.000000, 0.000000, 0.000000, 0.000000, 272.307678, 1545658645.448308, 4.000000, 4.000000, 4.000000, 4.000000, 4.000000, 4.000000, 4.000000, 4.000000, 4.000000, 4.000000, 4.000000, 4.000000, 4.000000, 4.000000, 4.000000, 4.000000
84.000000, 0.000000, 4185.127930, 4169.230469, 4153.846191, 4153.333008, 4173.846191, 4169.743652, 4171.794922, 4164.102539, 4168.205078, 4154.358887, 4165.641113, 4215.384277, 4224.102539, 4155.897461, 3528.000000, 8196.000000, 8142.000000, 0.000000, 0.000000, 0.000000, 0.000000, 280.512817, 1545658645.456513, 4.000000, 4.000000, 4.000000, 4.000000, 4.000000, 4.000000, 4.000000, 4.000000, 4.000000, 4.000000, 4.000000, 4.000000, 4.000000, 4.000000, 4.000000, 4.000000
85.000000, 0.000000, 4186.153809, 4167.692383, 4157.436035, 4156.410156, 4169.743652, 4167.179199, 4161.538574, 4164.615234, 4164.615234, 4153.333008, 4168.205078, 4216.410156, 4213.846191, 4157.436035, 3151.000000, 8181.000000, 8152.000000, 0.000000, 0.000000, 0.000000, 0.000000, 288.205139, 1545658645.464205, 4.000000, 4.000000, 4.000000, 4.000000, 4.000000, 4.000000, 4.000000, 4.000000, 4.000000, 4.000000, 4.000000, 4.000000, 4.000000, 4.000000, 4.000000, 4.000000
86.000000, 0.000000, 4183.589844, 4163.076660, 4155.384277, 4148.205078, 4164.102539, 4156.922852, 4144.102539, 4157.948730, 4156.922852, 4153.333008, 4168.205078, 4214.871582, 4209.230469, 4155.384277, 3554.000000, 8181.000000, 8152.000000, 0.000000, 0.000000, 0.000000, 0.000000, 295.897461, 1545658645.471897, 4.000000, 4.000000, 4.000000, 4.000000, 4.000000, 4.000000, 4.000000, 4.000000, 4.000000, 4.000000, 4.000000, 4.000000, 4.000000, 4.000000, 4.000000, 4.000000
87.000000, 0.000000, 4176.410156, 4159.487305, 4150.769043, 4139.487305, 4157.948730, 4153.333008, 4146.153809, 4151.794922, 4155.384277, 4148.717773, 4162.051270, 4213.846191, 4202.563965, 4153.333008, 3241.000000, 8179.000000, 8153.000000, 0.000000, 0.000000, 0.000000, 0.000000, 303.589722, 1545658645.479590, 4.000000, 4.000000, 4.000000, 4.000000, 4.000000, 4.000000, 4.000000, 4.000000, 4.000000, 4.000000, 4.000000, 4.000000, 4.000000, 4.000000, 4.000000, 4.000000
88.000000, 0.000000, 4169.230469, 4149.230469, 4146.153809, 4140.000000, 4151.281738, 4154.358887, 4146.153809, 4151.281738, 4153.846191, 4142.051270, 4151.281738, 4204.102539, 4188.205078, 4148.717773, 3528.000000, 8179.000000, 8153.000000, 0.000000, 0.000000, 0.000000, 0.000000, 311.282043, 1545658645.487282, 4.000000, 4.000000, 4.000000, 4.000000, 4.000000, 4.000000, 4.000000, 4.000000, 4.000000, 4.000000, 4.000000, 4.000000, 4.000000, 4.000000, 4.000000, 4.000000
89.000000, 0.000000, 4176.410156, 4148.717773, 4150.769043, 4148.717773, 4155.384277, 4152.820313, 4144.102539, 4155.384277, 4151.794922, 4144.102539, 4154.358887, 4204.102539, 4188.205078, 4149.230469, 3151.000000, 8166.000000, 8161.000000, 0.000000, 0.000000, 0.000000, 0.000000, 319.487183, 1545658645.495487, 4.000000, 4.000000, 4.000000, 4.000000, 4.000000, 4.000000, 4.000000, 4.000000, 4.000000, 4.000000, 4.000000, 4.000000, 4.000000, 4.000000, 4.000000, 4.000000
90.000000, 0.000000, 4186.666504, 4162.563965, 4154.358887, 4153.846191, 4167.179199, 4160.512695, 4157.436035, 4165.127930, 4161.025391, 4155.897461, 4169.230469, 4215.384277, 4199.487305, 4159.487305, 3554.000000, 8166.000000, 8161.000000, 0.000000, 0.000000, 0.000000, 0.000000, 327.179504, 1545658645.503180, 4.000000, 4.000000, 4.000000, 4.000000, 4.000000, 4.000000, 4.000000, 4.000000, 4.000000, 4.000000, 4.000000, 4.000000, 4.000000, 4.000000, 4.000000, 4.000000
91.000000, 0.000000, 4185.641113, 4170.769043, 4158.461426, 4153.846191, 4174.358887, 4173.333008, 4172.307617, 4172.820313, 4173.333008, 4167.692383, 4179.487305, 4221.025391, 4204.615234, 4169.743652, 3241.000000, 8166.000000, 8164.000000, 0.000000, 0.000000, 0.000000, 0.000000, 334.871826, 1545658645.510872, 4.000000, 4.000000, 4.000000, 4.000000, 4.000000, 4.000000, 4.000000, 4.000000, 4.000000, 4.000000, 4.000000, 4.000000, 4.000000, 4.000000, 4.000000, 4.000000
92.000000, 0.000000, 4186.153809, 4162.563965, 4165.127930, 4151.281738, 4171.281738, 4171.794922, 4172.820313, 4177.436035, 4177.436035, 4170.769043, 4184.102539, 4223.076660, 4203.076660, 4171.281738, 3528.000000, 8166.000000, 8164.000000, 0.000000, 0.000000, 0.000000, 0.000000, 342.564087, 1545658645.518564, 4.000000, 4.000000, 4.000000, 4.000000, 4.000000, 4.000000, 4.000000, 4.000000, 4.000000, 4.000000, 4.000000, 4.000000, 4.000000, 4.000000, 4.000000, 4.000000
93.000000, 0.000000, 4191.794922, 4156.410156, 4166.153809, 4151.281738, 4172.820313, 4171.794922, 4181.025391, 4186.153809, 4181.025391, 4174.358887, 4187.692383, 4228.717773, 4202.051270, 4174.871582, 3151.000000, 8173.000000, 8158.000000, 0.000000, 0.000000, 0.000000, 0.000000, 350.256409, 1545658645.526256, 4.000000, 4.000000, 4.000000, 4.000000, 4.000000, 4.000000, 4.000000, 4.000000, 4.000000, 4.000000, 4.000000, 4.000000, 4.000000, 4.000000, 4.000000, 4.000000
94.000000, 0.000000, 4200.000000, 4172.307617, 4175.897461, 4164.102539, 4187.179199, 4190.256348, 4197.436035, 4195.384277, 4196.922852, 4185.127930, 4195.897461, 4242.563965, 4212.820313, 4195.897461, 3554.000000, 8173.000000, 8158.000000, 0.000000, 0.000000, 0.000000, 0.000000, 357.948730, 1545658645.533949, 4.000000, 4.000000, 4.000000, 4.000000, 4.000000, 4.000000, 4.000000, 4.000000, 4.000000, 4.000000, 4.000000, 4.000000, 4.000000, 4.000000, 4.000000, 4.000000
95.000000, 0.000000, 4209.743652, 4190.256348, 4188.717773, 4174.871582, 4194.871582, 4199.487305, 4196.410156, 4188.717773, 4200.512695, 4190.256348, 4202.563965, 4248.205078, 4216.922852, 4207.692383, 3241.000000, 8180.000000, 8167.000000, 0.000000, 0.000000, 0.000000, 0.000000, 366.153870, 1545658645.542154, 4.000000, 4.000000, 4.000000, 4.000000, 4.000000, 4.000000, 4.000000, 4.000000, 4.000000, 4.000000, 4.000000, 4.000000, 4.000000, 4.000000, 4.000000, 4.000000
96.000000, 0.000000, 4197.436035, 4179.487305, 4172.307617, 4164.102539, 4180.512695, 4179.487305, 4172.820313, 4169.743652, 4180.512695, 4174.358887, 4188.205078, 4228.717773, 4190.769043, 4187.179199, 3528.000000, 8180.000000, 8167.000000, 0.000000, 0.000000, 0.000000, 0.000000, 373.846130, 1545658645.549846, 4.000000, 4.000000, 4.000000, 4.000000, 4.000000, 4.000000, 4.000000, 4.000000, 4.000000, 4.000000, 4.000000, 4.000000, 4.000000, 4.000000, 4.000000, 4.000000
97.000000, 0.000000, 4169.743652, 4152.307617, 4138.461426, 4143.589844, 4157.948730, 4153.846191, 4150.769043, 4149.743652, 4155.897461, 4152.820313, 4162.051270, 4200.512695, 4156.922852, 4162.563965, 3151.000000, 8192.000000, 8159.000000, 0.000000, 0.000000, 0.000000, 0.000000, 381.538452, 1545658645.557539, 4.000000, 4.000000, 4.000000, 4.000000, 4.000000, 4.000000, 4.000000, 4.000000, 4.000000, 4.000000, 4.000000, 4.000000, 4.000000, 4.000000, 4.000000, 4.000000
98.000000, 0.000000, 4170.256348, 4152.307617, 4138.974121, 4143.589844, 4160.512695, 4160.000000, 4153.333008, 4148.717773, 4153.333008, 4152.307617, 4160.000000, 4199.487305, 4155.897461, 4164.615234, 3554.000000, 8192.000000, 8159.000000, 0.000000, 0.000000, 0.000000, 0.000000, 389.230774, 1545658645.565231, 4.000000, 4.000000, 4.000000, 4.000000, 4.000000, 4.000000, 4.000000, 4.000000, 4.000000, 4.000000, 4.000000, 4.000000, 4.000000, 4.000000, 4.000000, 4.000000
99.000000, 0.000000, 4191.794922, 4168.717773, 4163.589844, 4160.512695, 4174.871582, 4177.436035, 4164.615234, 4167.692383, 4170.769043, 4165.127930, 4175.897461, 4214.358887, 4168.717773, 4178.974121, 3241.000000, 8198.000000, 8166.000000, 0.000000, 0.000000, 0.000000, 0.000000, 396.923096, 1545658645.572923, 4.000000, 4.000000, 4.000000, 4.000000, 4.000000, 4.000000, 4.000000, 4.000000, 4.000000, 4.000000, 4.000000, 4.000000, 4.000000, 4.000000, 4.000000, 4.000000
100.000000, 0.000000, 4198.461426, 4174.358887, 4172.307617, 4168.205078, 4176.410156, 4174.358887, 4169.743652, 4181.025391, 4181.538574, 4172.820313, 4185.641113, 4220.000000, 4171.281738, 4186.666504, 3528.000000, 8198.000000, 8166.000000, 0.000000, 0.000000, 0.000000, 0.000000, 404.615356, 1545658645.580615, 4.000000, 4.000000, 4.000000, 4.000000, 4.000000, 4.000000, 4.000000, 4.000000, 4.000000, 4.000000, 4.000000, 4.000000, 4.000000, 4.000000, 4.000000, 4.000000
101.000000, 0.000000, 4198.974121, 4173.846191, 4169.743652, 4161.025391, 4175.897461, 4173.846191, 4176.410156, 4192.307617, 4184.102539, 4178.461426, 4185.127930, 4224.102539, 4176.922852, 4192.820313, 3151.000000, 8218.000000, 8164.000000, 0.000000, 0.000000, 0.000000, 0.000000, 412.820496, 1545658645.588820, 4.000000, 4.000000, 4.000000, 4.000000, 4.000000, 4.000000, 4.000000, 4.000000, 4.000000, 4.000000, 4.000000, 4.000000, 4.000000, 4.000000, 4.000000, 4.000000
102.000000, 0.000000, 4200.000000, 4173.333008, 4165.641113, 4152.820313, 4178.974121, 4184.102539, 4187.692383, 4198.461426, 4188.205078, 4181.538574, 4184.615234, 4222.563965, 4180.000000, 4193.846191, 3554.000000, 8218.000000, 8164.000000, 0.000000, 0.000000, 0.000000, 0.000000, 420.512817, 1545658645.596513, 4.000000, 4.000000, 4.000000, 4.000000, 4.000000, 4.000000, 4.000000, 4.000000, 4.000000, 4.000000, 4.000000, 4.000000, 4.000000, 4.000000, 4.000000, 4.000000
103.000000, 0.000000, 4192.307617, 4173.333008, 4159.487305, 4156.410156, 4177.436035, 4178.461426, 4184.102539, 4188.205078, 4187.692383, 4175.384277, 4183.589844, 4215.897461, 4175.384277, 4189.230469, 3241.000000, 8221.000000, 8166.000000, 0.000000, 0.000000, 0.000000, 0.000000, 428.205139, 1545658645.604205, 4.000000, 4.000000, 4.000000, 4.000000, 4.000000, 4.000000, 4.000000, 4.000000, 4.000000, 4.000000, 4.000000, 4.000000, 4.000000, 4.000000, 4.000000, 4.000000
104.000000, 0.000000, 4189.743652, 4169.743652, 4156.410156, 4156.410156, 4168.205078, 4162.051270, 4168.205078, 4171.281738, 4172.307617, 4166.153809, 4174.358887, 4212.820313, 4169.743652, 4185.641113, 3528.000000, 8221.000000, 8166.000000, 0.000000, 0.000000, 0.000000, 0.000000, 435.897461, 1545658645.611897, 4.000000, 4.000000, 4.000000, 4.000000, 4.000000, 4.000000, 4.000000, 4.000000, 4.000000, 4.000000, 4.000000, 4.000000, 4.000000, 4.000000, 4.000000, 4.000000
105.000000, 0.000000, 4198.974121, 4168.205078, 4163.076660, 4149.230469, 4166.153809, 4163.589844, 4166.666504, 4171.794922, 4166.666504, 4163.076660, 4169.743652, 4217.948730, 4166.153809, 4188.717773, 3151.000000, 8223.000000, 8164.000000, 0.000000, 0.000000, 0.000000, 0.000000, 443.589722, 1545658645.619590, 4.000000, 4.000000, 4.000000, 4.000000, 4.000000, 4.000000, 4.000000, 4.000000, 4.000000, 4.000000, 4.000000, 4.000000, 4.000000, 4.000000, 4.000000, 4.000000
106.000000, 0.000000, 4204.102539, 4169.743652, 4168.717773, 4149.743652, 4172.820313, 4171.794922, 4174.358887, 4181.025391, 4175.384277, 4167.692383, 4174.871582, 4220.000000, 4168.205078, 4197.436035, 3554.000000, 8223.000000, 8164.000000, 0.000000, 0.000000, 0.000000, 0.000000, 451.282043, 1545658645.627282, 4.000000, 4.000000, 4.000000, 4.000000, 4.000000, 4.000000, 4.000000, 4.000000, 4.000000, 4.000000, 4.000000, 4.000000, 4.000000, 4.000000, 4.000000, 4.000000
107.000000, 0.000000, 4195.384277, 4165.641113, 4163.076660, 4153.846191, 4176.922852, 4171.281738, 4168.717773, 4165.127930, 4170.256348, 4165.127930, 4172.820313, 4214.358887, 4168.205078, 4193.846191, 3241.000000, 8224.000000, 8153.000000, 0.000000, 0.000000, 0.000000, 0.000000, 459.487183, 1545658645.635487, 4.000000, 4.000000, 4.000000, 4.000000, 4.000000, 4.000000, 4.000000, 4.000000, 4.000000, 4.000000, 4.000000, 4.000000, 4.000000, 4.000000, 4.000000, 4.000000
108.000000, 0.000000, 4185.641113, 4167.692383, 4155.897461, 4154.871582, 4177.436035, 4172.820313, 4169.230469, 4157.436035, 4164.615234, 4155.897461, 4166.153809, 4212.820313, 4164.615234, 4186.153809, 3528.000000, 8224.000000, 8153.000000, 0.000000, 0.000000, 0.000000, 0.000000, 467.179504, 1545658645.643179, 4.000000, 4.000000, 4.000000, 4.000000, 4.000000, 4.000000, 4.000000, 4.000000, 4.000000, 4.000000, 4.000000, 4.000000, 4.000000, 4.000000, 4.000000, 4.000000
109.000000, 0.000000, 4187.692383, 4179.487305, 4153.846191, 4156.410156, 4175.384277, 4175.897461, 4176.922852, 4176.410156, 4169.230469, 4155.897461, 4166.666504, 4210.256348, 4160.000000, 4186.666504, 3151.000000, 8213.000000, 8146.000000, 0.000000, 0.000000, 0.000000, 0.000000, 474.871765, 1545658645.650872, 4.000000, 4.000000, 4.000000, 4.000000, 4.000000, 4.000000, 4.000000, 4.000000, 4.000000, 4.000000, 4.000000, 4.000000, 4.000000, 4.000000, 4.000000, 4.000000
110.000000, 0.000000, 4188.717773, 4178.461426, 4153.333008, 4156.410156, 4175.897461, 4175.384277, 4172.820313, 4171.281738, 4161.538574, 4156.922852, 4165.127930, 4200.000000, 4156.922852, 4185.127930, 3554.000000, 8213.000000, 8146.000000, 0.000000, 0.000000, 0.000000, 0.000000, 482.564087, 1545658645.658564, 4.000000, 4.000000, 4.000000, 4.000000, 4.000000, 4.000000, 4.000000, 4.000000, 4.000000, 4.000000, 4.000000, 4.000000, 4.000000, 4.000000, 4.000000, 4.000000
111.000000, 0.000000, 4175.897461, 4156.410156, 4140.512695, 4143.589844, 4168.205078, 4169.230469, 4166.153809, 4142.051270, 4141.538574, 4142.563965, 4153.333008, 4187.692383, 4143.076660, 4168.717773, 3241.000000, 8208.000000, 8151.000000, 0.000000, 0.000000, 0.000000, 0.000000, 490.256409, 1545658645.666256, 4.000000, 4.000000, 4.000000, 4.000000, 4.000000, 4.000000, 4.000000, 4.000000, 4.000000, 4.000000, 4.000000, 4.000000, 4.000000, 4.000000, 4.000000, 4.000000
112.000000, 0.000000, 4172.307617, 4153.333008, 4137.948730, 4135.384277, 4163.589844, 4166.666504, 4165.127930, 4145.641113, 4143.076660, 4137.948730, 4152.820313, 4190.256348, 4140.000000, 4168.717773, 3528.000000, 8208.000000, 8151.000000, 0.000000, 0.000000, 0.000000, 0.000000, 497.948730, 1545658645.673949, 4.000000, 4.000000, 4.000000, 4.000000, 4.000000, 4.000000, 4.000000, 4.000000, 4.000000, 4.000000, 4.000000, 4.000000, 4.000000, 4.000000, 4.000000, 4.000000
113.000000, 0.000000, 4197.436035, 4172.307617, 4162.563965, 4151.281738, 4172.307617, 4174.358887, 4171.794922, 4177.436035, 4172.307617, 4166.153809, 4177.948730, 4211.794922, 4167.692383, 4196.410156, 3151.000000, 8208.000000, 8150.000000, 0.000000, 0.000000, 0.000000, 0.000000, 506.153870, 1545658645.682154, 4.000000, 4.000000, 4.000000, 4.000000, 4.000000, 4.000000, 4.000000, 4.000000, 4.000000, 4.000000, 4.000000, 4.000000, 4.000000, 4.000000, 4.000000, 4.000000
114.000000, 0.000000, 4217.436035, 4175.384277, 4177.948730, 4161.025391, 4175.897461, 4180.512695, 4184.102539, 4190.769043, 4190.769043, 4185.641113, 4201.025391, 4227.179199, 4187.179199, 4209.230469, 3554.000000, 8208.000000, 8150.000000, 0.000000, 0.000000, 0.000000, 0.000000, 513.846130, 1545658645.689846, 4.000000, 4.000000, 4.000000, 4.000000, 4.000000, 4.000000, 4.000000, 4.000000, 4.000000, 4.000000, 4.000000, 4.000000, 4.000000, 4.000000, 4.000000, 4.000000
115.000000, 0.000000, 4212.820313, 4169.230469, 4171.794922, 4154.871582, 4169.230469, 4176.410156, 4180.512695, 4186.666504, 4185.641113, 4178.461426, 4199.487305, 4223.076660, 4181.538574, 4201.025391, 3241.000000, 8213.000000, 8147.000000, 0.000000, 0.000000, 0.000000, 0.000000, 521.538452, 1545658645.697539, 4.000000, 4.000000, 4.000000, 4.000000, 4.000000, 4.000000, 4.000000, 4.000000, 4.000000, 4.000000, 4.000000, 4.000000, 4.000000, 4.000000, 4.000000, 4.000000
116.000000, 0.000000, 4207.179199, 4174.358887, 4166.153809, 4151.794922, 4170.769043, 4169.743652, 4169.743652, 4184.102539, 4183.076660, 4172.820313, 4191.281738, 4218.974121, 4176.410156, 4203.076660, 3528.000000, 8213.000000, 8147.000000, 0.000000, 0.000000, 0.000000, 0.000000, 529.230774, 1545658645.705231, 4.000000, 4.000000, 4.000000, 4.000000, 4.000000, 4.000000, 4.000000, 4.000000, 4.000000, 4.000000, 4.000000, 4.000000, 4.000000, 4.000000, 4.000000, 4.000000
117.000000, 0.000000, 4206.153809, 4170.256348, 4161.538574, 4150.769043, 4172.307617, 4171.794922, 4175.897461, 4192.307617, 4189.230469, 4175.384277, 4188.205078, 4217.436035, 4170.769043, 4204.102539, 3151.000000, 8222.000000, 8139.000000, 0.000000, 0.000000, 0.000000, 0.000000, 536.923096, 1545658645.712923, 4.000000, 4.000000, 4.000000, 4.000000, 4.000000, 4.000000, 4.000000, 4.000000, 4.000000, 4.000000, 4.000000, 4.000000, 4.000000, 4.000000, 4.000000, 4.000000
118.000000, 0.000000, 4200.512695, 4155.384277, 4153.846191, 4138.974121, 4161.538574, 4174.358887, 4178.974121, 4193.333008, 4185.127930, 4171.281738, 4182.051270, 4206.666504, 4153.333008, 4188.205078, 3554.000000, 8222.000000, 8139.000000, 0.000000, 0.000000, 0.000000, 0.000000, 544.615356, 1545658645.720615, 4.000000, 4.000000, 4.000000, 4.000000, 4.000000, 4.000000, 4.000000, 4.000000, 4.000000, 4.000000, 4.000000, 4.000000, 4.000000, 4.000000, 4.000000, 4.000000
119.000000, 0.000000, 4196.922852, 4158.974121, 4155.897461, 4132.307617, 4155.897461, 4168.205078, 4166.666504, 4174.871582, 4169.743652, 4158.461426, 4172.820313, 4204.615234, 4144.615234, 4187.692383, 3241.000000, 8230.000000, 8142.000000, 0.000000, 0.000000, 0.000000, 0.000000, 552.820496, 1545658645.728821, 4.000000, 4.000000, 4.000000, 4.000000, 4.000000, 4.000000, 4.000000, 4.000000, 4.000000, 4.000000, 4.000000, 4.000000, 4.000000, 4.000000, 4.000000, 4.000000
120.000000, 0.000000, 4202.051270, 4169.230469, 4163.589844, 4146.153809, 4165.127930, 4165.641113, 4167.179199, 4163.076660, 4157.436035, 4152.820313, 4169.230469, 4211.794922, 4148.205078, 4200.000000, 3528.000000, 8230.000000, 8142.000000, 0.000000, 0.000000, 0.000000, 0.000000, 560.512817, 1545658645.736513, 4.000000, 4.000000, 4.000000, 4.000000, 4.000000, 4.000000, 4.000000, 4.000000, 4.000000, 4.000000, 4.000000, 4.000000, 4.000000, 4.000000, 4.000000, 4.000000
121.000000, 0.000000, 4204.615234, 4163.076660, 4163.589844, 4154.871582, 4171.281738, 4171.281738, 4173.846191, 4169.743652, 4153.333008, 4154.358887, 4171.794922, 4207.692383, 4146.666504, 4195.384277, 3151.000000, 8228.000000, 8138.000000, 0.000000, 0.000000, 0.000000, 0.000000, 568.205139, 1545658645.744205, 4.000000, 4.000000, 4.000000, 4.000000, 4.000000, 4.000000, 4.000000, 4.000000, 4.000000, 4.000000, 4.000000, 4.000000, 4.000000, 4.000000, 4.000000, 4.000000
122.000000, 0.000000, 4197.948730, 4156.410156, 4152.820313, 4145.641113, 4168.717773, 4170.256348, 4170.769043, 4167.692383, 4154.358887, 4149.230469, 4164.615234, 4200.000000, 4131.281738, 4183.589844, 3554.000000, 8228.000000, 8138.000000, 0.000000, 0.000000, 0.000000, 0.000000, 575.897461, 1545658645.751898, 4.000000, 4.000000, 4.000000, 4.000000, 4.000000, 4.000000, 4.000000, 4.000000, 4.000000, 4.000000, 4.000000, 4.000000, 4.000000, 4.000000, 4.000000, 4.000000
123.000000, 0.000000, 4191.281738, 4158.974121, 4143.589844, 4137.436035, 4168.717773, 4167.692383, 4166.666504, 4153.333008, 4151.281738, 4142.563965, 4152.820313, 4195.897461, 4123.076660, 4182.051270, 3241.000000, 8223.000000, 8133.000000, 0.000000, 0.000000, 0.000000, 0.000000, 583.589722, 1545658645.759590, 4.000000, 4.000000, 4.000000, 4.000000, 4.000000, 4.000000, 4.000000, 4.000000, 4.000000, 4.000000, 4.000000, 4.000000, 4.000000, 4.000000, 4.000000, 4.000000
124.000000, 0.000000, 4189.743652, 4154.871582, 4146.153809, 4140.000000, 4169.230469, 4167.179199, 4158.974121, 4151.281738, 4148.717773, 4145.641113, 4158.461426, 4192.820313, 4131.281738, 4182.563965, 3528.000000, 8223.000000, 8133.000000, 0.000000, 0.000000, 0.000000, 0.000000, 591.794861, 1545658645.767795, 4.000000, 4.000000, 4.000000, 4.000000, 4.000000, 4.000000, 4.000000, 4.000000, 4.000000, 4.000000, 4.000000, 4.000000, 4.000000, 4.000000, 4.000000, 4.000000
125.000000, 0.000000, 4198.461426, 4160.512695, 4155.384277, 4148.717773, 4173.333008, 4169.230469, 4162.051270, 4165.127930, 4161.025391, 4156.410156, 4173.846191, 4198.461426, 4135.384277, 4186.666504, 3151.000000, 8229.000000, 8133.000000, 0.000000, 0.000000, 0.000000, 0.000000, 599.487201, 1545658645.775487, 4.000000, 4.000000, 4.000000, 4.000000, 4.000000, 4.000000, 4.000000, 4.000000, 4.000000, 4.000000, 4.000000, 4.000000, 4.000000, 4.000000, 4.000000, 4.000000
126.000000, 0.000000, 4207.692383, 4178.461426, 4160.000000, 4154.358887, 4182.563965, 4176.410156, 4180.000000, 4176.410156, 4172.307617, 4162.563965, 4172.820313, 4202.563965, 4127.179199, 4192.820313, 3554.000000, 8229.000000, 8133.000000, 0.000000, 0.000000, 0.000000, 0.000000, 607.179509, 1545658645.783180, 4.000000, 4.000000, 4.000000, 4.000000, 4.000000, 4.000000, 4.000000, 4.000000, 4.000000, 4.000000, 4.000000, 4.000000, 4.000000, 4.000000, 4.000000, 4.000000
127.000000, 0.000000, 4211.794922, 4186.153809, 4163.589844, 4155.897461, 4182.051270, 4181.538574, 4181.025391, 4175.897461, 4166.153809, 4163.589844, 4167.692383, 4201.538574, 4124.615234, 4196.410156, 56.000000, 8227.000000, 8133.000000, 0.000000, 0.000000, 0.000000, 0.000000, 614.871817, 1545658645.790872, 4.000000, 4.000000, 4.000000, 4.000000, 4.000000, 4.000000, 4.000000, 4.000000, 4.000000, 4.000000, 4.000000, 4.000000, 4.000000, 4.000000, 4.000000, 4.000000
0.000000, 0.000000, 4230.769043, 4201.538574, 4182.563965, 4169.230469, 4186.153809, 4189.230469, 4185.127930, 4192.820313, 4179.487305, 4173.846191, 4188.205078, 4222.051270, 4140.512695, 4214.871582, 3339.000000, 8227.000000, 8133.000000, 0.000000, 0.000000, 0.000000, 0.000000, 622.564123, 1545658645.798564, 4.000000, 4.000000, 4.000000, 4.000000, 4.000000, 4.000000, 4.000000, 4.000000, 4.000000, 4.000000, 4.000000, 4.000000, 4.000000, 4.000000, 4.000000, 4.000000
1.000000, 0.000000, 4241.025391, 4209.743652, 4192.307617, 4179.487305, 4192.820313, 4192.307617, 4200.512695, 4204.102539, 4193.333008, 4177.948730, 4196.922852, 4232.307617, 4146.666504, 4225.127930, 3518.000000, 8226.000000, 8140.000000, 0.000000, 0.000000, 0.000000, 0.000000, 630.256432, 1545658645.806256, 4.000000, 4.000000, 4.000000, 4.000000, 4.000000, 4.000000, 4.000000, 4.000000, 4.000000, 4.000000, 4.000000, 4.000000, 4.000000, 4.000000, 4.000000, 4.000000
2.000000, 0.000000, 4223.076660, 4191.281738, 4176.410156, 4166.666504, 4182.563965, 4181.025391, 4191.794922, 4181.538574, 4178.974121, 4170.769043, 4176.922852, 4212.307617, 4131.794922, 4208.717773, 3306.000000, 8226.000000, 8140.000000, 0.000000, 0.000000, 0.000000, 0.000000, 638.461559, 1545658645.814462, 4.000000, 4.000000, 4.000000, 4.000000, 4.000000, 4.000000, 4.000000, 4.000000, 4.000000, 4.000000, 4.000000, 4.000000, 4.000000, 4.000000, 4.000000, 4.000000
3.000000, 0.000000, 4213.333008, 4185.641113, 4167.692383, 4158.974121, 4174.871582, 4175.897461, 4182.051270, 4186.666504, 4183.589844, 4173.846191, 4172.820313, 4204.615234, 4123.076660, 4199.487305, 3585.000000, 8224.000000, 8141.000000, 0.000000, 0.000000, 0.000000, 0.000000, 646.153866, 1545658645.822154, 4.000000, 4.000000, 4.000000, 4.000000, 4.000000, 4.000000, 4.000000, 4.000000, 4.000000, 4.000000, 4.000000, 4.000000, 4.000000, 4.000000, 4.000000, 4.000000
4.000000, 0.000000, 4220.000000, 4200.000000, 4171.281738, 4169.230469, 4183.076660, 4180.512695, 4188.205078, 4207.692383, 4200.512695, 4180.000000, 4185.127930, 4212.307617, 4125.641113, 4204.102539, 3408.000000, 8224.000000, 8141.000000, 0.000000, 0.000000, 0.000000, 0.000000, 653.846176, 1545658645.829846, 4.000000, 4.000000, 4.000000, 4.000000, 4.000000, 4.000000, 4.000000, 4.000000, 4.000000, 4.000000, 4.000000, 4.000000, 4.000000, 4.000000, 4.000000, 4.000000
5.000000, 0.000000, 4211.794922, 4192.307617, 4162.563965, 4167.179199, 4181.025391, 4174.871582, 4178.974121, 4173.846191, 4177.436035, 4170.256348, 4176.922852, 4202.563965, 4122.563965, 4193.333008, 3489.000000, 8219.000000, 8144.000000, 0.000000, 0.000000, 0.000000, 0.000000, 661.538483, 1545658645.837538, 4.000000, 4.000000, 4.000000, 4.000000, 4.000000, 4.000000, 4.000000, 4.000000, 4.000000, 4.000000, 4.000000, 4.000000, 4.000000, 4.000000, 4.000000, 4.000000
6.000000, 0.000000, 4186.666504, 4167.692383, 4138.974121, 4144.615234, 4168.205078, 4166.153809, 4163.076660, 4132.820313, 4144.615234, 4149.743652, 4149.743652, 4176.922852, 4103.589844, 4166.153809, 3423.000000, 8219.000000, 8144.000000, 0.000000, 0.000000, 0.000000, 0.000000, 669.230789, 1545658645.845231, 4.000000, 4.000000, 4.000000, 4.000000, 4.000000, 4.000000, 4.000000, 4.000000, 4.000000, 4.000000, 4.000000, 4.000000, 4.000000, 4.000000, 4.000000, 4.000000
7.000000, 0.000000, 4175.384277, 4161.025391, 4129.743652, 4130.769043, 4166.153809, 4167.692383, 4164.102539, 4144.102539, 4137.948730, 4134.358887, 4135.384277, 4165.127930, 4085.640869, 4149.230469, 3254.000000, 8219.000000, 8150.000000, 0.000000, 0.000000, 0.000000, 0.000000, 676.923096, 1545658645.852923, 4.000000, 4.000000, 4.000000, 4.000000, 4.000000, 4.000000, 4.000000, 4.000000, 4.000000, 4.000000, 4.000000, 4.000000, 4.000000, 4.000000, 4.000000, 4.000000
8.000000, 0.000000, 4191.281738, 4167.692383, 4142.563965, 4142.051270, 4173.846191, 4170.256348, 4167.692383, 4160.000000, 4142.051270, 4136.410156, 4142.051270, 4175.897461, 4089.743408, 4158.974121, 3440.000000, 8219.000000, 8150.000000, 0.000000, 0.000000, 0.000000, 0.000000, 685.128227, 1545658645.861128, 4.000000, 4.000000, 4.000000, 4.000000, 4.000000, 4.000000, 4.000000, 4.000000, 4.000000, 4.000000, 4.000000, 4.000000, 4.000000, 4.000000, 4.000000, 4.000000
9.000000, 0.000000, 4211.794922, 4180.000000, 4158.974121, 4158.461426, 4179.487305, 4174.871582, 4177.948730, 4168.205078, 4160.000000, 4152.820313, 4161.025391, 4191.794922, 4108.717773, 4178.461426, 3260.000000, 8222.000000, 8157.000000, 0.000000, 0.000000, 0.000000, 0.000000, 692.820534, 1545658645.868821, 4.000000, 4.000000, 4.000000, 4.000000, 4.000000, 4.000000, 4.000000, 4.000000, 4.000000, 4.000000, 4.000000, 4.000000, 4.000000, 4.000000, 4.000000, 4.000000
10.000000, 0.000000, 4207.692383, 4181.538574, 4158.461426, 4153.846191, 4173.333008, 4175.897461, 4183.589844, 4177.948730, 4172.820313, 4158.461426, 4167.692383, 4191.281738, 4110.256348, 4176.922852, 3553.000000, 8222.000000, 8157.000000, 0.000000, 0.000000, 0.000000, 0.000000, 700.512840, 1545658645.876513, 4.000000, 4.000000, 4.000000, 4.000000, 4.000000, 4.000000, 4.000000, 4.000000, 4.000000, 4.000000, 4.000000, 4.000000, 4.000000, 4.000000, 4.000000, 4.000000
11.000000, 0.000000, 4201.538574, 4176.922852, 4157.436035, 4148.717773, 4170.256348, 4173.333008, 4173.846191, 4180.000000, 4170.769043, 4157.948730, 4164.615234, 4190.256348, 4105.127930, 4170.256348, 3236.000000, 8224.000000, 8153.000000, 0.000000, 0.000000, 0.000000, 0.000000, 708.205147, 1545658645.884205, 4.000000, 4.000000, 4.000000, 4.000000, 4.000000, 4.000000, 4.000000, 4.000000, 4.000000, 4.000000, 4.000000, 4.000000, 4.000000, 4.000000, 4.000000, 4.000000
12.000000, 0.000000, 4222.563965, 4188.717773, 4177.948730, 4165.127930, 4185.127930, 4186.666504, 4183.076660, 4199.487305, 4187.179199, 4173.333008, 4178.461426, 4208.717773, 4124.102539, 4187.179199, 3521.000000, 8224.000000, 8153.000000, 0.000000, 0.000000, 0.000000, 0.000000, 715.897453, 1545658645.891897, 4.000000, 4.000000, 4.000000, 4.000000, 4.000000, 4.000000, 4.000000, 4.000000, 4.000000, 4.000000, 4.000000, 4.000000, 4.000000, 4.000000, 4.000000, 4.000000
13.000000, 0.000000, 4236.922852, 4196.410156, 4187.692383, 4172.307617, 4189.743652, 4192.307617, 4196.410156, 4202.563965, 4191.281738, 4175.897461, 4187.179199, 4214.871582, 4133.333008, 4198.461426, 3150.000000, 8233.000000, 8161.000000, 0.000000, 0.000000, 0.000000, 0.000000, 723.589760, 1545658645.899590, 4.000000, 4.000000, 4.000000, 4.000000, 4.000000, 4.000000, 4.000000, 4.000000, 4.000000, 4.000000, 4.000000, 4.000000, 4.000000, 4.000000, 4.000000, 4.000000
14.000000, 0.000000, 4216.922852, 4180.000000, 4167.692383, 4157.436035, 4171.794922, 4174.358887, 4179.487305, 4163.589844, 4161.025391, 4152.820313, 4167.179199, 4197.436035, 4110.769043, 4181.538574, 3553.000000, 8233.000000, 8161.000000, 0.000000, 0.000000, 0.000000, 0.000000, 731.794891, 1545658645.907795, 4.000000, 4.000000, 4.000000, 4.000000, 4.000000, 4.000000, 4.000000, 4.000000, 4.000000, 4.000000, 4.000000, 4.000000, 4.000000, 4.000000, 4.000000, 4.000000
15.000000, 0.000000, 4200.000000, 4163.589844, 4153.846191, 4145.641113, 4158.974121, 4157.948730, 4165.127930, 4152.307617, 4144.615234, 4136.410156, 4150.769043, 4183.589844, 4097.948730, 4167.179199, 3236.000000, 8228.000000, 8153.000000, 0.000000, 0.000000, 0.000000, 0.000000, 739.487198, 1545658645.915487, 4.000000, 4.000000, 4.000000, 4.000000, 4.000000, 4.000000, 4.000000, 4.000000, 4.000000, 4.000000, 4.000000, 4.000000, 4.000000, 4.000000, 4.000000, 4.000000
16.000000, 0.000000, 4207.692383, 4171.281738, 4163.076660, 4147.179199, 4163.589844, 4161.025391, 4168.205078, 4168.717773, 4153.846191, 4140.512695, 4161.538574, 4188.717773, 4107.692383, 4172.820313, 0.000000, 8228.000000, 8153.000000, 0.000000, 0.000000, 0.000000, 0.000000, 747.179504, 1545658645.923179, 4.000000, 4.000000, 4.000000, 4.000000, 4.000000, 4.000000, 4.000000, 4.000000, 4.000000, 4.000000, 4.000000, 4.000000, 4.000000, 4.000000, 4.000000, 4.000000
17.000000, 0.000000, 4218.461426, 4180.000000, 4171.794922, 4152.307617, 4168.205078, 4164.102539, 4157.948730, 4162.051270, 4160.512695, 4151.281738, 4178.461426, 4200.000000, 4117.436035, 4185.127930, 0.000000, 8229.000000, 8153.000000, 0.000000, 0.000000, 0.000000, 0.000000, 754.871811, 1545658645.930872, 4.000000, 4.000000, 4.000000, 4.000000, 4.000000, 4.000000, 4.000000, 4.000000, 4.000000, 4.000000, 4.000000, 4.000000, 4.000000, 4.000000, 4.000000, 4.000000
18.000000, 0.000000, 4222.563965, 4181.025391, 4178.461426, 4156.922852, 4169.230469, 4161.025391, 4148.717773, 4163.076660, 4169.743652, 4166.153809, 4188.205078, 4210.256348, 4127.692383, 4193.333008, 0.000000, 8229.000000, 8153.000000, 0.000000, 0.000000, 0.000000, 0.000000, 762.564117, 1545658645.938564, 4.000000, 4.000000, 4.000000, 4.000000, 4.000000, 4.000000, 4.000000, 4.000000, 4.000000, 4.000000, 4.000000, 4.000000, 4.000000, 4.000000, 4.000000, 4.000000
19.000000, 0.000000, 4223.076660, 4183.076660, 4183.589844, 4158.461426, 4168.717773, 4163.076660, 4161.538574, 4180.000000, 4175.897461, 4171.794922, 4190.256348, 4208.205078, 4131.281738, 4192.820313, 0.000000, 8228.000000, 8149.000000, 0.000000, 0.000000, 0.000000, 0.000000, 770.256424, 1545658645.946256, 4.000000, 4.000000, 4.000000, 4.000000, 4.000000, 4.000000, 4.000000, 4.000000, 4.000000, 4.000000, 4.000000, 4.000000, 4.000000, 4.000000, 4.000000, 4.000000
20.000000, 0.000000, 4215.384277, 4181.538574, 4171.794922, 4154.358887, 4168.717773, 4168.717773, 4170.769043, 4174.871582, 4167.692383, 4160.512695, 4178.974121, 4191.281738, 4115.384277, 4182.563965, 0.000000, 8228.000000, 8149.000000, 0.000000, 0.000000, 0.000000, 0.000000, 778.461563, 1545658645.954462, 4.000000, 4.000000, 4.000000, 4.000000, 4.000000, 4.000000, 4.000000, 4.000000, 4.000000, 4.000000, 4.000000, 4.000000, 4.000000, 4.000000, 4.000000, 4.000000
21.000000, 0.000000, 4202.051270, 4177.436035, 4156.410156, 4153.333008, 4172.820313, 4171.794922, 4168.717773, 4165.641113, 4168.205078, 4154.871582, 4171.794922, 4184.102539, 4107.692383, 4172.820313, 0.000000, 8223.000000, 8147.000000, 0.000000, 0.000000, 0.000000, 0.000000, 786.153870, 1545658645.962154, 4.000000, 4.000000, 4.000000, 4.000000, 4.000000, 4.000000, 4.000000, 4.000000, 4.000000, 4.000000, 4.000000, 4.000000, 4.000000, 4.000000, 4.000000, 4.000000
22.000000, 0.000000, 4198.974121, 4175.384277, 4155.384277, 4150.256348, 4173.333008, 4169.230469, 4165.127930, 4171.281738, 4173.333008, 4157.948730, 4170.256348, 4184.102539, 4114.358887, 4170.256348, 0.000000, 8223.000000, 8147.000000, 0.000000, 0.000000, 0.000000, 0.000000, 793.846176, 1545658645.969846, 4.000000, 4.000000, 4.000000, 4.000000, 4.000000, 4.000000, 4.000000, 4.000000, 4.000000, 4.000000, 4.000000, 4.000000, 4.000000, 4.000000, 4.000000, 4.000000
23.000000, 0.000000, 4201.538574, 4165.641113, 4153.333008, 4142.051270, 4162.563965, 4162.563965, 4157.436035, 4168.205078, 4158.461426, 4153.333008, 4157.436035, 4175.384277, 4104.615234, 4168.205078, 0.000000, 8221.000000, 8151.000000, 0.000000, 0.000000, 0.000000, 0.000000, 801.538483, 1545658645.977539, 4.000000, 4.000000, 4.000000, 4.000000, 4.000000, 4.000000, 4.000000, 4.000000, 4.000000, 4.000000, 4.000000, 4.000000, 4.000000, 4.000000, 4.000000, 4.000000
24.000000, 0.000000, 4197.948730, 4154.358887, 4147.692383, 4136.922852, 4154.871582, 4160.512695, 4155.897461, 4165.127930, 4148.205078, 4146.153809, 4151.281738, 4169.743652, 4091.281982, 4164.615234, 0.000000, 8221.000000, 8151.000000, 0.000000, 0.000000, 0.000000, 0.000000, 809.230789, 1545658645.985231, 4.000000, 4.000000, 4.000000, 4.000000, 4.000000, 4.000000, 4.000000, 4.000000, 4.000000, 4.000000, 4.000000, 4.000000, 4.000000, 4.000000, 4.000000, 4.000000
25.000000, 0.000000, 4200.512695, 4164.102539, 4153.333008, 4139.487305, 4167.692383, 4171.281738, 4171.281738, 4175.897461, 4164.615234, 4150.769043, 4163.589844, 4181.025391, 4101.025391, 4168.717773, 0.000000, 8215.000000, 8150.000000, 0.000000, 0.000000, 0.000000, 0.000000, 816.923096, 1545658645.992923, 4.000000, 4.000000, 4.000000, 4.000000, 4.000000, 4.000000, 4.000000, 4.000000, 4.000000, 4.000000, 4.000000, 4.000000, 4.000000, 4.000000, 4.000000, 4.000000
26.000000, 0.000000, 4208.717773, 4174.358887, 4158.461426, 4142.051270, 4172.307617, 4175.384277, 4176.410156, 4178.461426, 4172.820313, 4154.358887, 4167.179199, 4186.666504, 4111.281738, 4171.794922, 0.000000, 8215.000000, 8150.000000, 0.000000, 0.000000, 0.000000, 0.000000, 825.128220, 1545658646.001128, 4.000000, 4.000000, 4.000000, 4.000000, 4.000000, 4.000000, 4.000000, 4.000000, 4.000000, 4.000000, 4.000000, 4.000000, 4.000000, 4.000000, 4.000000, 4.000000
27.000000, 0.000000, 4210.256348, 4164.615234, 4155.384277, 4139.487305, 4155.897461, 4163.589844, 4166.153809, 4167.179199, 4153.846191, 4147.692383, 4153.846191, 4181.025391, 4100.512695, 4166.666504, 0.000000, 8210.000000, 8146.000000, 0.000000, 0.000000, 0.000000, 0.000000, 832.820526, 1545658646.008821, 4.000000, 4.000000, 4.000000, 4.000000, 4.000000, 4.000000, 4.000000, 4.000000, 4.000000, 4.000000, 4.000000, 4.000000, 4.000000, 4.000000, 4.000000, 4.000000
28.000000, 0.000000, 4219.487305, 4168.717773, 4166.666504, 4149.230469, 4155.897461, 4167.179199, 4175.384277, 4167.179199, 4152.820313, 4151.281738, 4160.000000, 4189.743652, 4101.538574, 4173.846191, 0.000000, 8210.000000, 8146.000000, 0.000000, 0.000000, 0.000000, 0.000000, 840.512833, 1545658646.016513, 4.000000, 4.000000, 4.000000, 4.000000, 4.000000, 4.000000, 4.000000, 4.000000, 4.000000, 4.000000, 4.000000, 4.000000, 4.000000, 4.000000, 4.000000, 4.000000
29.000000, 0.000000, 4232.820313, 4188.717773, 4185.127930, 4165.127930, 4173.846191, 4183.076660, 4191.281738, 4176.410156, 4173.846191, 4168.205078, 4181.538574, 4206.666504, 4121.025391, 4191.281738, 0.000000, 8209.000000, 8154.000000, 0.000000, 0.000000, 0.000000, 0.000000, 848.205139, 1545658646.024205, 4.000000, 4.000000, 4.000000, 4.000000, 4.000000, 4.000000, 4.000000, 4.000000, 4.000000, 4.000000, 4.000000, 4.000000, 4.000000, 4.000000, 4.000000, 4.000000
30.000000, 0.000000, 4223.589844, 4187.179199, 4178.974121, 4156.410156, 4173.333008, 4178.461426, 4183.076660, 4171.794922, 4171.281738, 4169.230469, 4183.076660, 4202.563965, 4120.512695, 4188.717773, 0.000000, 8209.000000, 8154.000000, 0.000000, 0.000000, 0.000000, 0.000000, 855.897461, 1545658646.031898, 4.000000, 4.000000, 4.000000, 4.000000, 4.000000, 4.000000, 4.000000, 4.000000, 4.000000, 4.000000, 4.000000, 4.000000, 4.000000, 4.000000, 4.000000, 4.000000
31.000000, 0.000000, 4203.076660, 4168.717773, 4159.487305, 4139.487305, 4160.000000, 4165.641113, 4171.281738, 4169.230469, 4163.589844, 4159.487305, 4166.666504, 4187.692383, 4110.256348, 4173.846191, 0.000000, 8203.000000, 8155.000000, 0.000000, 0.000000, 0.000000, 0.000000, 864.102570, 1545658646.040102, 4.000000, 4.000000, 4.000000, 4.000000, 4.000000, 4.000000, 4.000000, 4.000000, 4.000000, 4.000000, 4.000000, 4.000000, 4.000000, 4.000000, 4.000000, 4.000000
32.000000, 0.000000, 4197.436035, 4163.076660, 4151.281738, 4142.563965, 4154.358887, 4165.127930, 4162.051270, 4169.743652, 4167.692383, 4156.410156, 4152.820313, 4177.948730, 4117.948730, 4163.589844, 0.000000, 8203.000000, 8155.000000, 0.000000, 0.000000, 0.000000, 0.000000, 871.794891, 1545658646.047795, 4.000000, 4.000000, 4.000000, 4.000000, 4.000000, 4.000000, 4.000000, 4.000000, 4.000000, 4.000000, 4.000000, 4.000000, 4.000000, 4.000000, 4.000000, 4.000000
33.000000, 0.000000, 4201.025391, 4169.743652, 4154.358887, 4156.410156, 4156.410156, 4170.769043, 4153.333008, 4154.358887, 4160.000000, 4149.743652, 4152.820313, 4172.820313, 4141.025391, 4157.436035, 0.000000, 8208.000000, 8154.000000, 0.000000, 0.000000, 0.000000, 0.000000, 879.487183, 1545658646.055487, 4.000000, 4.000000, 4.000000, 4.000000, 4.000000, 4.000000, 4.000000, 4.000000, 4.000000, 4.000000, 4.000000, 4.000000, 4.000000, 4.000000, 4.000000, 4.000000
34.000000, 0.000000, 4200.000000, 4172.820313, 4161.025391, 4160.512695, 4164.102539, 4169.743652, 4158.461426, 4160.512695, 4158.461426, 4145.127930, 4154.871582, 4177.436035, 4163.076660, 4160.512695, 0.000000, 8208.000000, 8154.000000, 0.000000, 0.000000, 0.000000, 0.000000, 887.179504, 1545658646.063179, 4.000000, 4.000000, 4.000000, 4.000000, 4.000000, 4.000000, 4.000000, 4.000000, 4.000000, 4.000000, 4.000000, 4.000000, 4.000000, 4.000000, 4.000000, 4.000000
35.000000, 0.000000, 4197.436035, 4168.717773, 4161.538574, 4156.410156, 4165.641113, 4166.153809, 4171.794922, 4185.641113, 4166.666504, 4148.717773, 4151.281738, 4184.102539, 4177.948730, 4167.179199, 0.000000, 8210.000000, 8154.000000, 0.000000, 0.000000, 0.000000, 0.000000, 894.871796, 1545658646.070872, 4.000000, 4.000000, 4.000000, 4.000000, 4.000000, 4.000000, 4.000000, 4.000000, 4.000000, 4.000000, 4.000000, 4.000000, 4.000000, 4.000000, 4.000000, 4.000000
36.000000, 0.000000, 4198.461426, 4170.769043, 4158.974121, 4158.974121, 4164.615234, 4174.358887, 4177.436035, 4175.897461, 4160.000000, 4151.794922, 4155.384277, 4183.589844, 4200.512695, 4166.666504, 0.000000, 8210.000000, 8154.000000, 0.000000, 0.000000, 0.000000, 0.000000, 902.564117, 1545658646.078564, 4.000000, 4.000000, 4.000000, 4.000000, 4.000000, 4.000000, 4.000000, 4.000000, 4.000000, 4.000000, 4.000000, 4.000000, 4.000000, 4.000000, 4.000000, 4.000000
37.000000, 0.000000, 4206.666504, 4186.153809, 4171.281738, 4171.794922, 4179.487305, 4188.717773, 4178.461426, 4155.897461, 4158.974121, 4160.000000, 4172.820313, 4193.846191, 4237.436035, 4169.230469, 0.000000, 8210.000000, 8147.000000, 0.000000, 0.000000, 0.000000, 0.000000, 910.769257, 1545658646.086769, 4.000000, 4.000000, 4.000000, 4.000000, 4.000000, 4.000000, 4.000000, 4.000000, 4.000000, 4.000000, 4.000000, 4.000000, 4.000000, 4.000000, 4.000000, 4.000000
38.000000, 0.000000, 4207.179199, 4190.256348, 4174.358887, 4172.307617, 4183.589844, 4183.076660, 4171.281738, 4164.102539, 4170.256348, 4166.153809, 4175.384277, 4201.538574, 4254.871582, 4168.205078, 0.000000, 8210.000000, 8147.000000, 0.000000, 0.000000, 0.000000, 0.000000, 918.461548, 1545658646.094461, 4.000000, 4.000000, 4.000000, 4.000000, 4.000000, 4.000000, 4.000000, 4.000000, 4.000000, 4.000000, 4.000000, 4.000000, 4.000000, 4.000000, 4.000000, 4.000000
39.000000, 0.000000, 4197.436035, 4183.589844, 4158.461426, 4157.948730, 4172.307617, 4173.333008, 4167.692383, 4174.871582, 4172.307617, 4161.025391, 4164.615234, 4188.205078, 4248.717773, 4156.922852, 0.000000, 8209.000000, 8146.000000, 0.000000, 0.000000, 0.000000, 0.000000, 926.153870, 1545658646.102154, 4.000000, 4.000000, 4.000000, 4.000000, 4.000000, 4.000000, 4.000000, 4.000000, 4.000000, 4.000000, 4.000000, 4.000000, 4.000000, 4.000000, 4.000000, 4.000000
40.000000, 0.000000, 4200.512695, 4191.794922, 4169.230469, 4165.641113, 4177.436035, 4188.205078, 4185.127930, 4183.076660, 4180.512695, 4169.230469, 4178.974121, 4193.333008, 4264.615234, 4164.102539, 0.000000, 8209.000000, 8146.000000, 0.000000, 0.000000, 0.000000, 0.000000, 933.846161, 1545658646.109846, 4.000000, 4.000000, 4.000000, 4.000000, 4.000000, 4.000000, 4.000000, 4.000000, 4.000000, 4.000000, 4.000000, 4.000000, 4.000000, 4.000000, 4.000000, 4.000000
41.000000, 0.000000, 4205.641113, 4196.410156, 4187.179199, 4180.000000, 4183.589844, 4198.461426, 4198.974121, 4189.743652, 4189.230469, 4181.025391, 4191.281738, 4208.717773, 4278.461426, 4174.358887, 0.000000, 8206.000000, 8143.000000, 0.000000, 0.000000, 0.000000, 0.000000, 941.538483, 1545658646.117539, 4.000000, 4.000000, 4.000000, 4.000000, 4.000000, 4.000000, 4.000000, 4.000000, 4.000000, 4.000000, 4.000000, 4.000000, 4.000000, 4.000000, 4.000000, 4.000000
42.000000, 0.000000, 4192.820313, 4183.589844, 4173.333008, 4164.102539, 4169.230469, 4183.589844, 4185.641113, 4175.897461, 4174.358887, 4169.743652, 4174.358887, 4196.410156, 4257.436035, 4158.974121, 0.000000, 8206.000000, 8143.000000, 0.000000, 0.000000, 0.000000, 0.000000, 949.230774, 1545658646.125231, 4.000000, 4.000000, 4.000000, 4.000000, 4.000000, 4.000000, 4.000000, 4.000000, 4.000000, 4.000000, 4.000000, 4.000000, 4.000000, 4.000000, 4.000000, 4.000000
43.000000, 0.000000, 4183.076660, 4174.871582, 4161.025391, 4153.333008, 4161.538574, 4169.230469, 4168.205078, 4165.127930, 4165.127930, 4158.461426, 4165.127930, 4182.563965, 4245.127930, 4147.692383, 0.000000, 8204.000000, 8142.000000, 0.000000, 0.000000, 0.000000, 0.000000, 957.435913, 1545658646.133436, 4.000000, 4.000000, 4.000000, 4.000000, 4.000000, 4.000000, 4.000000, 4.000000, 4.000000, 4.000000, 4.000000, 4.000000, 4.000000, 4.000000, 4.000000, 4.000000
44.000000, 0.000000, 4184.615234, 4177.948730, 4168.205078, 4159.487305, 4164.615234, 4171.281738, 4178.461426, 4173.333008, 4170.256348, 4158.461426, 4169.743652, 4186.666504, 4248.717773, 4152.820313, 0.000000, 8204.000000, 8142.000000, 0.000000, 0.000000, 0.000000, 0.000000, 965.128204, 1545658646.141128, 4.000000, 4.000000, 4.000000, 4.000000, 4.000000, 4.000000, 4.000000, 4.000000, 4.000000, 4.000000, 4.000000, 4.000000, 4.000000, 4.000000, 4.000000, 4.000000
45.000000, 0.000000, 4183.076660, 4181.025391, 4168.205078, 4158.461426, 4162.051270, 4177.436035, 4195.897461, 4171.281738, 4165.641113, 4152.820313, 4165.641113, 4191.281738, 4242.051270, 4153.846191, 0.000000, 8207.000000, 8146.000000, 0.000000, 0.000000, 0.000000, 0.000000, 972.820526, 1545658646.148821, 4.000000, 4.000000, 4.000000, 4.000000, 4.000000, 4.000000, 4.000000, 4.000000, 4.000000, 4.000000, 4.000000, 4.000000, 4.000000, 4.000000, 4.000000, 4.000000
46.000000, 0.000000, 4184.615234, 4186.666504, 4168.205078, 4158.974121, 4171.794922, 4183.589844, 4180.512695, 4166.666504, 4165.127930, 4152.307617, 4165.641113, 4197.948730, 4240.512695, 4154.871582, 0.000000, 8207.000000, 8146.000000, 0.000000, 0.000000, 0.000000, 0.000000, 980.512848, 1545658646.156513, 4.000000, 4.000000, 4.000000, 4.000000, 4.000000, 4.000000, 4.000000, 4.000000, 4.000000, 4.000000, 4.000000, 4.000000, 4.000000, 4.000000, 4.000000, 4.000000
47.000000, 0.000000, 4190.256348, 4189.743652, 4174.358887, 4169.230469, 4182.051270, 4181.538574, 4161.538574, 4168.717773, 4171.281738, 4157.948730, 4173.333008, 4202.051270, 4244.102539, 4158.461426, 0.000000, 8202.000000, 8149.000000, 0.000000, 0.000000, 0.000000, 0.000000, 988.205139, 1545658646.164205, 4.000000, 4.000000, 4.000000, 4.000000, 4.000000, 4.000000, 4.000000, 4.000000, 4.000000, 4.000000, 4.000000, 4.000000, 4.000000, 4.000000, 4.000000, 4.000000
48.000000, 0.000000, 4182.051270, 4184.102539, 4166.666504, 4171.281738, 4174.871582, 4171.281738, 4166.153809, 4158.974121, 4163.076660, 4155.384277, 4169.230469, 4188.717773, 4229.230469, 4148.717773, 0.000000, 8202.000000, 8149.000000, 0.000000, 0.000000, 0.000000, 0.000000, 995.897461, 1545658646.171897, 4.000000, 4.000000, 4.000000, 4.000000, 4.000000, 4.000000, 4.000000, 4.000000, 4.000000, 4.000000, 4.000000, 4.000000, 4.000000, 4.000000, 4.000000, 4.000000
49.000000, 0.000000, 4174.871582, 4183.076660, 4159.487305, 4166.153809, 4174.358887, 4173.333008, 4173.333008, 4157.948730, 4159.487305, 4156.922852, 4166.153809, 4180.000000, 4220.512695, 4143.076660, 0.000000, 8206.000000, 8155.000000, 0.000000, 0.000000, 0.000000, 1.000000, 4.102570, 1545658646.180103, 4.000000, 4.000000, 4.000000, 4.000000, 4.000000, 4.000000, 4.000000, 4.000000, 4.000000, 4.000000, 4.000000, 4.000000, 4.000000, 4.000000, 4.000000, 4.000000
50.000000, 0.000000, 4189.230469, 4184.615234, 4172.307617, 4168.717773, 4183.589844, 4182.563965, 4176.922852, 4179.487305, 4175.897461, 4172.307617, 4180.512695, 4195.897461, 4235.897461, 4160.000000, 0.000000, 8206.000000, 8155.000000, 0.000000, 0.000000, 0.000000, 1.000000, 11.794891, 1545658646.187795, 4.000000, 4.000000, 4.000000, 4.000000, 4.000000, 4.000000, 4.000000, 4.000000, 4.000000, 4.000000, 4.000000, 4.000000, 4.000000, 4.000000, 4.000000, 4.000000
51.000000, 0.000000, 4205.127930, 4193.333008, 4188.717773, 4176.922852, 4187.692383, 4192.307617, 4186.666504, 4193.333008, 4196.922852, 4187.692383, 4201.025391, 4219.487305, 4251.794922, 4176.922852, 0.000000, 8199.000000, 8153.000000, 0.000000, 0.000000, 0.000000, 1.000000, 19.487183, 1545658646.195487, 4.000000, 4.000000, 4.000000, 4.000000, 4.000000, 4.000000, 4.000000, 4.000000, 4.000000, 4.000000, 4.000000, 4.000000, 4.000000, 4.000000, 4.000000, 4.000000
52.000000, 0.000000, 4204.615234, 4199.487305, 4186.153809, 4180.000000, 4189.743652, 4196.410156, 4194.358887, 4188.717773, 4201.538574, 4187.692383, 4207.179199, 4219.487305, 4248.717773, 4176.410156, 0.000000, 8199.000000, 8153.000000, 0.000000, 0.000000, 0.000000, 1.000000, 27.179504, 1545658646.203179, 4.000000, 4.000000, 4.000000, 4.000000, 4.000000, 4.000000, 4.000000, 4.000000, 4.000000, 4.000000, 4.000000, 4.000000, 4.000000, 4.000000, 4.000000, 4.000000
53.000000, 0.000000, 4195.897461, 4190.256348, 4176.410156, 4174.358887, 4187.692383, 4190.769043, 4190.256348, 4182.563965, 4192.820313, 4179.487305, 4196.922852, 4205.127930, 4235.897461, 4166.666504, 0.000000, 8205.000000, 8151.000000, 0.000000, 0.000000, 0.000000, 1.000000, 34.871796, 1545658646.210872, 4.000000, 4.000000, 4.000000, 4.000000, 4.000000, 4.000000, 4.000000, 4.000000, 4.000000, 4.000000, 4.000000, 4.000000, 4.000000, 4.000000, 4.000000, 4.000000
54.000000, 0.000000, 4189.230469, 4180.512695, 4171.281738, 4167.692383, 4174.358887, 4171.794922, 4170.256348, 4178.461426, 4185.127930, 4172.307617, 4186.666504, 4198.461426, 4223.589844, 4157.436035, 0.000000, 8205.000000, 8151.000000, 0.000000, 0.000000, 0.000000, 1.000000, 42.564117, 1545658646.218564, 4.000000, 4.000000, 4.000000, 4.000000, 4.000000, 4.000000, 4.000000, 4.000000, 4.000000, 4.000000, 4.000000, 4.000000, 4.000000, 4.000000, 4.000000, 4.000000
55.000000, 0.000000, 4190.256348, 4183.076660, 4167.179199, 4167.692383, 4160.512695, 4155.384277, 4154.358887, 4169.743652, 4178.974121, 4166.153809, 4182.051270, 4200.000000, 4212.820313, 4154.358887, 0.000000, 8208.000000, 8150.000000, 0.000000, 0.000000, 0.000000, 1.000000, 50.769257, 1545658646.226769, 4.000000, 4.000000, 4.000000, 4.000000, 4.000000, 4.000000, 4.000000, 4.000000, 4.000000, 4.000000, 4.000000, 4.000000, 4.000000, 4.000000, 4.000000, 4.000000
56.000000, 0.000000, 4202.051270, 4188.717773, 4175.897461, 4171.794922, 4166.153809, 4160.512695, 4164.102539, 4170.256348, 4177.948730, 4166.153809, 4185.641113, 4207.179199, 4213.333008, 4165.641113, 0.000000, 8208.000000, 8150.000000, 0.000000, 0.000000, 0.000000, 1.000000, 58.461548, 1545658646.234461, 4.000000, 4.000000, 4.000000, 4.000000, 4.000000, 4.000000, 4.000000, 4.000000, 4.000000, 4.000000, 4.000000, 4.000000, 4.000000, 4.000000, 4.000000, 4.000000
57.000000, 0.000000, 4206.666504, 4189.743652, 4185.641113, 4175.384277, 4177.948730, 4173.333008, 4174.871582, 4177.948730, 4184.102539, 4169.230469, 4191.281738, 4213.333008, 4221.538574, 4172.307617, 0.000000, 8214.000000, 8149.000000, 0.000000, 0.000000, 0.000000, 1.000000, 66.153870, 1545658646.242154, 4.000000, 4.000000, 4.000000, 4.000000, 4.000000, 4.000000, 4.000000, 4.000000, 4.000000, 4.000000, 4.000000, 4.000000, 4.000000, 4.000000, 4.000000, 4.000000
58.000000, 0.000000, 4192.820313, 4183.589844, 4172.820313, 4168.717773, 4177.948730, 4175.384277, 4173.333008, 4178.461426, 4185.641113, 4170.256348, 4183.589844, 4201.025391, 4214.871582, 4158.974121, 0.000000, 8214.000000, 8149.000000, 0.000000, 0.000000, 0.000000, 1.000000, 73.846161, 1545658646.249846, 4.000000, 4.000000, 4.000000, 4.000000, 4.000000, 4.000000, 4.000000, 4.000000, 4.000000, 4.000000, 4.000000, 4.000000, 4.000000, 4.000000, 4.000000, 4.000000
59.000000, 0.000000, 4178.974121, 4173.333008, 4156.410156, 4160.512695, 4166.666504, 4171.794922, 4175.384277, 4185.641113, 4185.127930, 4168.205078, 4174.358887, 4185.641113, 4198.974121, 4146.666504, 0.000000, 8214.000000, 8158.000000, 0.000000, 0.000000, 0.000000, 1.000000, 81.538483, 1545658646.257539, 4.000000, 4.000000, 4.000000, 4.000000, 4.000000, 4.000000, 4.000000, 4.000000, 4.000000, 4.000000, 4.000000, 4.000000, 4.000000, 4.000000, 4.000000, 4.000000
60.000000, 0.000000, 4184.615234, 4176.922852, 4168.717773, 4170.256348, 4172.820313, 4185.641113, 4189.230469, 4200.512695, 4194.358887, 4177.436035, 4188.717773, 4196.922852, 4205.127930, 4158.974121, 0.000000, 8214.000000, 8158.000000, 0.000000, 0.000000, 0.000000, 1.000000, 89.230774, 1545658646.265231, 4.000000, 4.000000, 4.000000, 4.000000, 4.000000, 4.000000, 4.000000, 4.000000, 4.000000, 4.000000, 4.000000, 4.000000, 4.000000, 4.000000, 4.000000, 4.000000
61.000000, 0.000000, 4207.179199, 4196.922852, 4195.897461, 4190.769043, 4195.897461, 4207.692383, 4210.256348, 4209.230469, 4211.794922, 4198.461426, 4211.281738, 4222.563965, 4222.051270, 4183.076660, 0.000000, 8215.000000, 8153.000000, 0.000000, 0.000000, 0.000000, 1.000000, 97.435913, 1545658646.273436, 4.000000, 4.000000, 4.000000, 4.000000, 4.000000, 4.000000, 4.000000, 4.000000, 4.000000, 4.000000, 4.000000, 4.000000, 4.000000, 4.000000, 4.000000, 4.000000
62.000000, 0.000000, 4206.153809, 4203.589844, 4194.358887, 4194.358887, 4194.871582, 4205.641113, 4211.794922, 4193.333008, 4205.127930, 4193.333008, 4203.076660, 4217.948730, 4206.153809, 4176.922852, 0.000000, 8215.000000, 8153.000000, 0.000000, 0.000000, 0.000000, 1.000000, 105.128204, 1545658646.281128, 4.000000, 4.000000, 4.000000, 4.000000, 4.000000, 4.000000, 4.000000, 4.000000, 4.000000, 4.000000, 4.000000, 4.000000, 4.000000, 4.000000, 4.000000, 4.000000
63.000000, 0.000000, 4179.487305, 4186.153809, 4166.666504, 4179.487305, 4173.846191, 4184.102539, 4182.563965, 4178.974121, 4180.000000, 4166.666504, 4173.846191, 4191.281738, 4171.794922, 4147.179199, 0.000000, 8211.000000, 8151.000000, 0.000000, 0.000000, 0.000000, 1.000000, 112.820496, 1545658646.288821, 4.000000, 4.000000, 4.000000, 4.000000, 4.000000, 4.000000, 4.000000, 4.000000, 4.000000, 4.000000, 4.000000, 4.000000, 4.000000, 4.000000, 4.000000, 4.000000
64.000000, 0.000000, 4164.102539, 4174.871582, 4148.205078, 4168.717773, 4169.743652, 4172.820313, 4162.563965, 4183.589844, 4171.281738, 4158.974121, 4160.000000, 4177.948730, 4154.358887, 4132.307617, 3154.000000, 8211.000000, 8151.000000, 0.000000, 0.000000, 0.000000, 1.000000, 120.512817, 1545658646.296513, 4.000000, 4.000000, 4.000000, 4.000000, 4.000000, 4.000000, 4.000000, 4.000000, 4.000000, 4.000000, 4.000000, 4.000000, 4.000000, 4.000000, 4.000000, 4.000000
65.000000, 0.000000, 4165.641113, 4183.589844, 4154.871582, 4172.307617, 4180.000000, 4179.487305, 4172.820313, 4176.922852, 4178.974121, 4168.717773, 4164.102539, 4182.051270, 4155.384277, 4132.820313, 3527.000000, 8213.000000, 8150.000000, 0.000000, 0.000000, 0.000000, 1.000000, 128.205139, 1545658646.304205, 4.000000, 4.000000, 4.000000, 4.000000, 4.000000, 4.000000, 4.000000, 4.000000, 4.000000, 4.000000, 4.000000, 4.000000, 4.000000, 4.000000, 4.000000, 4.000000
66.000000, 0.000000, 4177.436035, 4198.974121, 4169.743652, 4186.666504, 4194.358887, 4194.358887, 4191.794922, 4178.461426, 4191.281738, 4180.512695, 4183.589844, 4193.846191, 4172.307617, 4145.127930, 3309.000000, 8213.000000, 8150.000000, 0.000000, 0.000000, 0.000000, 1.000000, 136.410278, 1545658646.312410, 4.000000, 4.000000, 4.000000, 4.000000, 4.000000, 4.000000, 4.000000, 4.000000, 4.000000, 4.000000, 4.000000, 4.000000, 4.000000, 4.000000, 4.000000, 4.000000
67.000000, 0.000000, 4187.692383, 4207.692383, 4174.871582, 4193.846191, 4204.615234, 4206.666504, 4206.666504, 4200.512695, 4205.127930, 4194.871582, 4198.461426, 4205.641113, 4189.743652, 4159.487305, 3582.000000, 8213.000000, 8159.000000, 0.000000, 0.000000, 0.000000, 1.000000, 144.102600, 1545658646.320102, 4.000000, 4.000000, 4.000000, 4.000000, 4.000000, 4.000000, 4.000000, 4.000000, 4.000000, 4.000000, 4.000000, 4.000000, 4.000000, 4.000000, 4.000000, 4.000000
68.000000, 0.000000, 4173.846191, 4197.436035, 4164.615234, 4179.487305, 4192.307617, 4200.000000, 4201.538574, 4197.948730, 4201.538574, 4187.179199, 4185.127930, 4191.794922, 4176.922852, 4145.641113, 3412.000000, 8213.000000, 8159.000000, 0.000000, 0.000000, 0.000000, 1.000000, 151.794861, 1545658646.327795, 4.000000, 4.000000, 4.000000, 4.000000, 4.000000, 4.000000, 4.000000, 4.000000, 4.000000, 4.000000, 4.000000, 4.000000, 4.000000, 4.000000, 4.000000, 4.000000
69.000000, 0.000000, 4153.846191, 4178.461426, 4150.256348, 4166.666504, 4173.846191, 4185.641113, 4187.179199, 4172.307617, 4183.589844, 4168.205078, 4162.563965, 4169.230469, 4154.871582, 4121.025391, 3491.000000, 8209.000000, 8158.000000, 0.000000, 0.000000, 0.000000, 1.000000, 159.487183, 1545658646.335487, 4.000000, 4.000000, 4.000000, 4.000000, 4.000000, 4.000000, 4.000000, 4.000000, 4.000000, 4.000000, 4.000000, 4.000000, 4.000000, 4.000000, 4.000000, 4.000000
70.000000, 0.000000, 4151.794922, 4169.743652, 4142.563965, 4167.692383, 4172.820313, 4183.076660, 4181.538574, 4174.358887, 4177.948730, 4168.717773, 4156.922852, 4166.153809, 4153.846191, 4115.897461, 3420.000000, 8209.000000, 8158.000000, 0.000000, 0.000000, 0.000000, 1.000000, 166.666687, 1545658646.342667, 4.000000, 4.000000, 4.000000, 4.000000, 4.000000, 4.000000, 4.000000, 4.000000, 4.000000, 4.000000, 4.000000, 4.000000, 4.000000, 4.000000, 4.000000, 4.000000
71.000000, 0.000000, 4144.615234, 4167.179199, 4132.820313, 4158.461426, 4171.281738, 4175.384277, 4172.820313, 4178.974121, 4173.333008, 4162.051270, 4150.256348, 4158.974121, 4149.743652, 4110.769043, 3083.000000, 8214.000000, 8158.000000, 0.000000, 0.000000, 0.000000, 1.000000, 174.359009, 1545658646.350359, 4.000000, 4.000000, 4.000000, 4.000000, 4.000000, 4.000000, 4.000000, 4.000000, 4.000000, 4.000000, 4.000000, 4.000000, 4.000000, 4.000000, 4.000000, 4.000000
72.000000, 0.000000, 4134.871582, 4161.025391, 4130.769043, 4147.692383, 4166.666504, 4165.641113, 4168.205078, 4161.538574, 4161.538574, 4147.692383, 4141.538574, 4150.256348, 4140.000000, 4103.076660, 3434.000000, 8214.000000, 8158.000000, 0.000000, 0.000000, 0.000000, 1.000000, 181.538452, 1545658646.357538, 4.000000, 4.000000, 4.000000, 4.000000, 4.000000, 4.000000, 4.000000, 4.000000, 4.000000, 4.000000, 4.000000, 4.000000, 4.000000, 4.000000, 4.000000, 4.000000
73.000000, 0.000000, 4155.384277, 4167.179199, 4148.205078, 4161.025391, 4178.974121, 4176.922852, 4184.615234, 4173.846191, 4175.384277, 4163.076660, 4157.436035, 4169.743652, 4154.358887, 4122.563965, 3261.000000, 8206.000000, 8149.000000, 0.000000, 0.000000, 0.000000, 1.000000, 189.230774, 1545658646.365231, 4.000000, 4.000000, 4.000000, 4.000000, 4.000000, 4.000000, 4.000000, 4.000000, 4.000000, 4.000000, 4.000000, 4.000000, 4.000000, 4.000000, 4.000000, 4.000000
74.000000, 0.000000, 4172.820313, 4181.538574, 4164.102539, 4173.333008, 4188.205078, 4187.179199, 4185.127930, 4191.281738, 4194.358887, 4185.641113, 4178.461426, 4188.717773, 4171.794922, 4142.563965, 3554.000000, 8206.000000, 8149.000000, 0.000000, 0.000000, 0.000000, 1.000000, 196.410278, 1545658646.372410, 4.000000, 4.000000, 4.000000, 4.000000, 4.000000, 4.000000, 4.000000, 4.000000, 4.000000, 4.000000, 4.000000, 4.000000, 4.000000, 4.000000, 4.000000, 4.000000
75.000000, 0.000000, 4170.256348, 4190.256348, 4165.641113, 4174.358887, 4184.102539, 4180.000000, 4168.717773, 4184.615234, 4193.333008, 4186.666504, 4183.076660, 4191.281738, 4176.410156, 4139.487305, 3074.000000, 8207.000000, 8151.000000, 0.000000, 0.000000, 0.000000, 1.000000, 204.102600, 1545658646.380103, 4.000000, 4.000000, 4.000000, 4.000000, 4.000000, 4.000000, 4.000000, 4.000000, 4.000000, 4.000000, 4.000000, 4.000000, 4.000000, 4.000000, 4.000000, 4.000000
76.000000, 0.000000, 4180.000000, 4197.948730, 4171.281738, 4188.205078, 4190.256348, 4184.102539, 4186.666504, 4195.384277, 4199.487305, 4190.256348, 4184.102539, 4201.538574, 4185.127930, 4142.051270, 3526.000000, 8207.000000, 8151.000000, 0.000000, 0.000000, 0.000000, 1.000000, 211.282043, 1545658646.387282, 4.000000, 4.000000, 4.000000, 4.000000, 4.000000, 4.000000, 4.000000, 4.000000, 4.000000, 4.000000, 4.000000, 4.000000, 4.000000, 4.000000, 4.000000, 4.000000
77.000000, 0.000000, 4186.666504, 4195.384277, 4170.256348, 4189.230469, 4194.871582, 4192.820313, 4204.615234, 4202.563965, 4202.563965, 4188.205078, 4177.948730, 4200.512695, 4183.589844, 4144.102539, 3153.000000, 8220.000000, 8144.000000, 0.000000, 0.000000, 0.000000, 1.000000, 218.974365, 1545658646.394974, 4.000000, 4.000000, 4.000000, 4.000000, 4.000000, 4.000000, 4.000000, 4.000000, 4.000000, 4.000000, 4.000000, 4.000000, 4.000000, 4.000000, 4.000000, 4.000000
78.000000, 0.000000, 4170.256348, 4178.461426, 4157.948730, 4169.230469, 4178.974121, 4182.563965, 4185.641113, 4186.666504, 4186.153809, 4171.794922, 4166.153809, 4183.076660, 4166.153809, 4135.384277, 3554.000000, 8220.000000, 8144.000000, 0.000000, 0.000000, 0.000000, 1.000000, 226.153870, 1545658646.402154, 4.000000, 4.000000, 4.000000, 4.000000, 4.000000, 4.000000, 4.000000, 4.000000, 4.000000, 4.000000, 4.000000, 4.000000, 4.000000, 4.000000, 4.000000, 4.000000
79.000000, 0.000000, 4166.666504, 4170.769043, 4160.000000, 4164.615234, 4172.307617, 4173.333008, 4180.512695, 4192.820313, 4182.051270, 4173.846191, 4170.769043, 4191.281738, 4167.692383, 4141.538574, 3074.000000, 8219.000000, 8145.000000, 0.000000, 0.000000, 0.000000, 1.000000, 233.846130, 1545658646.409846, 4.000000, 4.000000, 4.000000, 4.000000, 4.000000, 4.000000, 4.000000, 4.000000, 4.000000, 4.000000, 4.000000, 4.000000, 4.000000, 4.000000, 4.000000, 4.000000
80.000000, 0.000000, 4171.794922, 4170.769043, 4167.179199, 4168.205078, 4182.051270, 4175.384277, 4188.205078, 4197.948730, 4189.743652, 4186.153809, 4177.436035, 4203.076660, 4174.358887, 4149.230469, 3526.000000, 8219.000000, 8145.000000, 0.000000, 0.000000, 0.000000, 1.000000, 241.025635, 1545658646.417026, 4.000000, 4.000000, 4.000000, 4.000000, 4.000000, 4.000000, 4.000000, 4.000000, 4.000000, 4.000000, 4.000000, 4.000000, 4.000000, 4.000000, 4.000000, 4.000000
81.000000, 0.000000, 4170.769043, 4172.820313, 4167.692383, 4164.615234, 4186.666504, 4178.974121, 4185.127930, 4174.871582, 4183.589844, 4183.589844, 4175.384277, 4197.948730, 4166.153809, 4143.076660, 3153.000000, 8221.000000, 8145.000000, 0.000000, 0.000000, 0.000000, 1.000000, 248.717957, 1545658646.424718, 4.000000, 4.000000, 4.000000, 4.000000, 4.000000, 4.000000, 4.000000, 4.000000, 4.000000, 4.000000, 4.000000, 4.000000, 4.000000, 4.000000, 4.000000, 4.000000
82.000000, 0.000000, 4182.563965, 4187.179199, 4177.436035, 4175.897461, 4191.794922, 4189.743652, 4194.871582, 4184.615234, 4191.281738, 4189.743652, 4192.820313, 4211.794922, 4177.948730, 4154.871582, 3554.000000, 8221.000000, 8145.000000, 0.000000, 0.000000, 0.000000, 1.000000, 255.897461, 1545658646.431897, 4.000000, 4.000000, 4.000000, 4.000000, 4.000000, 4.000000, 4.000000, 4.000000, 4.000000, 4.000000, 4.000000, 4.000000, 4.000000, 4.000000, 4.000000, 4.000000
83.000000, 0.000000, 4204.615234, 4205.641113, 4194.358887, 4197.948730, 4203.589844, 4200.512695, 4208.205078, 4220.512695, 4216.922852, 4212.820313, 4220.512695, 4238.461426, 4207.179199, 4183.589844, 3074.000000, 8225.000000, 8149.000000, 0.000000, 0.000000, 0.000000, 1.000000, 263.589722, 1545658646.439590, 4.000000, 4.000000, 4.000000, 4.000000, 4.000000, 4.000000, 4.000000, 4.000000, 4.000000, 4.000000, 4.000000, 4.000000, 4.000000, 4.000000, 4.000000, 4.000000
84.000000, 0.000000, 4205.127930, 4207.692383, 4192.307617, 4198.974121, 4206.666504, 4194.358887, 4195.897461, 4212.307617, 4215.897461, 4211.794922, 4218.461426, 4233.333008, 4205.127930, 4182.051270, 3526.000000, 8225.000000, 8149.000000, 0.000000, 0.000000, 0.000000, 1.000000, 270.769226, 1545658646.446769, 4.000000, 4.000000, 4.000000, 4.000000, 4.000000, 4.000000, 4.000000, 4.000000, 4.000000, 4.000000, 4.000000, 4.000000, 4.000000, 4.000000, 4.000000, 4.000000
85.000000, 0.000000, 4184.615234, 4192.307617, 4169.230469, 4180.000000, 4188.205078, 4177.948730, 4177.436035, 4183.589844, 4187.692383, 4184.615234, 4188.205078, 4203.076660, 4168.717773, 4155.384277, 3153.000000, 8220.000000, 8139.000000, 0.000000, 0.000000, 0.000000, 1.000000, 278.461548, 1545658646.454461, 4.000000, 4.000000, 4.000000, 4.000000, 4.000000, 4.000000, 4.000000, 4.000000, 4.000000, 4.000000, 4.000000, 4.000000, 4.000000, 4.000000, 4.000000, 4.000000
86.000000, 0.000000, 4169.230469, 4172.820313, 4150.256348, 4162.563965, 4173.333008, 4168.717773, 4170.769043, 4167.179199, 4163.076660, 4161.025391, 4159.487305, 4183.076660, 4141.025391, 4136.922852, 3554.000000, 8220.000000, 8139.000000, 0.000000, 0.000000, 0.000000, 1.000000, 285.641052, 1545658646.461641, 4.000000, 4.000000, 4.000000, 4.000000, 4.000000, 4.000000, 4.000000, 4.000000, 4.000000, 4.000000, 4.000000, 4.000000, 4.000000, 4.000000, 4.000000, 4.000000
87.000000, 0.000000, 4167.179199, 4166.153809, 4149.230469, 4156.922852, 4177.436035, 4172.820313, 4171.794922, 4153.846191, 4153.333008, 4152.307617, 4157.948730, 4181.538574, 4137.436035, 4134.358887, 3074.000000, 8217.000000, 8147.000000, 0.000000, 0.000000, 0.000000, 1.000000, 293.333313, 1545658646.469333, 4.000000, 4.000000, 4.000000, 4.000000, 4.000000, 4.000000, 4.000000, 4.000000, 4.000000, 4.000000, 4.000000, 4.000000, 4.000000, 4.000000, 4.000000, 4.000000
88.000000, 0.000000, 4171.281738, 4172.307617, 4153.333008, 4155.897461, 4177.948730, 4175.897461, 4173.846191, 4148.205078, 4153.333008, 4156.922852, 4170.769043, 4188.717773, 4141.025391, 4140.000000, 3526.000000, 8217.000000, 8147.000000, 0.000000, 0.000000, 0.000000, 1.000000, 300.512817, 1545658646.476513, 4.000000, 4.000000, 4.000000, 4.000000, 4.000000, 4.000000, 4.000000, 4.000000, 4.000000, 4.000000, 4.000000, 4.000000, 4.000000, 4.000000, 4.000000, 4.000000
89.000000, 0.000000, 4167.692383, 4163.589844, 4142.051270, 4152.307617, 4165.641113, 4164.615234, 4165.127930, 4150.769043, 4151.281738, 4161.538574, 4166.666504, 4185.127930, 4135.897461, 4138.461426, 3153.000000, 8217.000000, 8140.000000, 0.000000, 0.000000, 0.000000, 1.000000, 308.205139, 1545658646.484205, 4.000000, 4.000000, 4.000000, 4.000000, 4.000000, 4.000000, 4.000000, 4.000000, 4.000000, 4.000000, 4.000000, 4.000000, 4.000000, 4.000000, 4.000000, 4.000000
90.000000, 0.000000, 4165.641113, 4155.384277, 4133.846191, 4150.256348, 4164.102539, 4161.025391, 4161.538574, 4164.102539, 4156.922852, 4163.076660, 4161.538574, 4181.538574, 4132.307617, 4135.897461, 3554.000000, 8217.000000, 8140.000000, 0.000000, 0.000000, 0.000000, 1.000000, 315.384644, 1545658646.491385, 4.000000, 4.000000, 4.000000, 4.000000, 4.000000, 4.000000, 4.000000, 4.000000, 4.000000, 4.000000, 4.000000, 4.000000, 4.000000, 4.000000, 4.000000, 4.000000
91.000000, 0.000000, 4171.281738, 4167.692383, 4144.615234, 4154.358887, 4170.769043, 4167.692383, 4166.153809, 4174.871582, 4170.769043, 4168.717773, 4170.256348, 4190.769043, 4135.897461, 4141.538574, 3074.000000, 8220.000000, 8140.000000, 0.000000, 0.000000, 0.000000, 1.000000, 322.564087, 1545658646.498564, 4.000000, 4.000000, 4.000000, 4.000000, 4.000000, 4.000000, 4.000000, 4.000000, 4.000000, 4.000000, 4.000000, 4.000000, 4.000000, 4.000000, 4.000000, 4.000000
92.000000, 0.000000, 4171.794922, 4170.769043, 4152.820313, 4153.846191, 4162.051270, 4160.512695, 4157.436035, 4168.717773, 4171.794922, 4171.794922, 4174.871582, 4198.974121, 4138.461426, 4147.179199, 3526.000000, 8220.000000, 8140.000000, 0.000000, 0.000000, 0.000000, 1.000000, 330.256409, 1545658646.506256, 4.000000, 4.000000, 4.000000, 4.000000, 4.000000, 4.000000, 4.000000, 4.000000, 4.000000, 4.000000, 4.000000, 4.000000, 4.000000, 4.000000, 4.000000, 4.000000
93.000000, 0.000000, 4173.846191, 4155.897461, 4152.820313, 4149.230469, 4156.410156, 4152.307617, 4150.769043, 4166.153809, 4165.641113, 4168.717773, 4171.281738, 4200.512695, 4137.436035, 4151.281738, 3153.000000, 8220.000000, 8142.000000, 0.000000, 0.000000, 0.000000, 1.000000, 337.435913, 1545658646.513436, 4.000000, 4.000000, 4.000000, 4.000000, 4.000000, 4.000000, 4.000000, 4.000000, 4.000000, 4.000000, 4.000000, 4.000000, 4.000000, 4.000000, 4.000000, 4.000000
94.000000, 0.000000, 4182.051270, 4151.794922, 4158.461426, 4150.769043, 4165.641113, 4157.436035, 4158.461426, 4173.846191, 4169.230469, 4169.743652, 4172.307617, 4202.563965, 4137.436035, 4154.871582, 3554.000000, 8220.000000, 8142.000000, 0.000000, 0.000000, 0.000000, 1.000000, 345.128235, 1545658646.521128, 4.000000, 4.000000, 4.000000, 4.000000, 4.000000, 4.000000, 4.000000, 4.000000, 4.000000, 4.000000, 4.000000, 4.000000, 4.000000, 4.000000, 4.000000, 4.000000
95.000000, 0.000000, 4186.666504, 4158.974121, 4161.538574, 4155.384277, 4170.769043, 4162.563965, 4164.102539, 4173.333008, 4172.820313, 4174.358887, 4176.410156, 4205.641113, 4137.436035, 4154.871582, 3074.000000, 8219.000000, 8147.000000, 0.000000, 0.000000, 0.000000, 1.000000, 352.307678, 1545658646.528308, 4.000000, 4.000000, 4.000000, 4.000000, 4.000000, 4.000000, 4.000000, 4.000000, 4.000000, 4.000000, 4.000000, 4.000000, 4.000000, 4.000000, 4.000000, 4.000000
96.000000, 0.000000, 4182.051270, 4158.461426, 4154.871582, 4154.358887, 4163.589844, 4164.102539, 4164.615234, 4165.127930, 4166.666504, 4170.256348, 4174.358887, 4201.538574, 4131.794922, 4149.230469, 3526.000000, 8219.000000, 8147.000000, 0.000000, 0.000000, 0.000000, 1.000000, 360.000000, 1545658646.536000, 4.000000, 4.000000, 4.000000, 4.000000, 4.000000, 4.000000, 4.000000, 4.000000, 4.000000, 4.000000, 4.000000, 4.000000, 4.000000, 4.000000, 4.000000, 4.000000
97.000000, 0.000000, 4182.051270, 4166.153809, 4158.461426, 4157.948730, 4165.127930, 4169.230469, 4170.769043, 4168.205078, 4167.179199, 4168.205078, 4174.871582, 4200.000000, 4129.743652, 4148.205078, 3153.000000, 8214.000000, 8151.000000, 0.000000, 0.000000, 0.000000, 1.000000, 367.179504, 1545658646.543180, 4.000000, 4.000000, 4.000000, 4.000000, 4.000000, 4.000000, 4.000000, 4.000000, 4.000000, 4.000000, 4.000000, 4.000000, 4.000000, 4.000000, 4.000000, 4.000000
98.000000, 0.000000, 4188.205078, 4182.051270, 4170.769043, 4170.256348, 4180.000000, 4175.897461, 4180.512695, 4180.512695, 4175.384277, 4174.358887, 4183.076660, 4205.641113, 4135.384277, 4154.871582, 3554.000000, 8214.000000, 8151.000000, 0.000000, 0.000000, 0.000000, 1.000000, 374.871826, 1545658646.550872, 4.000000, 4.000000, 4.000000, 4.000000, 4.000000, 4.000000, 4.000000, 4.000000, 4.000000, 4.000000, 4.000000, 4.000000, 4.000000, 4.000000, 4.000000, 4.000000
99.000000, 0.000000, 4183.589844, 4177.948730, 4163.076660, 4166.153809, 4178.461426, 4172.820313, 4180.000000, 4176.922852, 4172.307617, 4173.333008, 4184.102539, 4199.487305, 4135.897461, 4153.846191, 3074.000000, 8214.000000, 8151.000000, 0.000000, 0.000000, 0.000000, 1.000000, 382.051270, 1545658646.558051, 4.000000, 4.000000, 4.000000, 4.000000, 4.000000, 4.000000, 4.000000, 4.000000, 4.000000, 4.000000, 4.000000, 4.000000, 4.000000, 4.000000, 4.000000, 4.000000
100.000000, 0.000000, 4177.948730, 4170.769043, 4156.410156, 4157.436035, 4168.717773, 4167.692383, 4169.230469, 4161.025391, 4168.205078, 4170.769043, 4176.922852, 4193.333008, 4130.769043, 4148.717773, 3526.000000, 8214.000000, 8151.000000, 0.000000, 0.000000, 0.000000, 1.000000, 389.743591, 1545658646.565744, 4.000000, 4.000000, 4.000000, 4.000000, 4.000000, 4.000000, 4.000000, 4.000000, 4.000000, 4.000000, 4.000000, 4.000000, 4.000000, 4.000000, 4.000000, 4.000000
101.000000, 0.000000, 4185.641113, 4181.025391, 4169.743652, 4166.153809, 4177.436035, 4175.384277, 4170.769043, 4168.717773, 4181.538574, 4183.589844, 4183.076660, 4206.666504, 4137.436035, 4160.000000, 3153.000000, 8215.000000, 8152.000000, 0.000000, 0.000000, 0.000000, 1.000000, 396.923096, 1545658646.572923, 4.000000, 4.000000, 4.000000, 4.000000, 4.000000, 4.000000, 4.000000, 4.000000, 4.000000, 4.000000, 4.000000, 4.000000, 4.000000, 4.000000, 4.000000, 4.000000
102.000000, 0.000000, 4190.256348, 4188.717773, 4175.384277, 4173.846191, 4184.615234, 4185.127930, 4183.589844, 4191.794922, 4191.794922, 4200.000000, 4204.615234, 4217.948730, 4157.436035, 4180.512695, 3554.000000, 8215.000000, 8152.000000, 0.000000, 0.000000, 0.000000, 1.000000, 404.615356, 1545658646.580616, 4.000000, 4.000000, 4.000000, 4.000000, 4.000000, 4.000000, 4.000000, 4.000000, 4.000000, 4.000000, 4.000000, 4.000000, 4.000000, 4.000000, 4.000000, 4.000000
103.000000, 0.000000, 4188.205078, 4184.102539, 4169.230469, 4170.256348, 4179.487305, 4185.127930, 4187.179199, 4188.205078, 4190.256348, 4201.538574, 4218.461426, 4215.897461, 4177.436035, 4186.153809, 3074.000000, 8214.000000, 8159.000000, 0.000000, 0.000000, 0.000000, 1.000000, 411.794861, 1545658646.587795, 4.000000, 4.000000, 4.000000, 4.000000, 4.000000, 4.000000, 4.000000, 4.000000, 4.000000, 4.000000, 4.000000, 4.000000, 4.000000, 4.000000, 4.000000, 4.000000
104.000000, 0.000000, 4194.358887, 4181.025391, 4174.871582, 4171.794922, 4184.615234, 4184.102539, 4185.127930, 4177.948730, 4195.384277, 4203.589844, 4224.615234, 4218.461426, 4187.692383, 4188.205078, 3526.000000, 8214.000000, 8159.000000, 0.000000, 0.000000, 0.000000, 1.000000, 419.487183, 1545658646.595487, 4.000000, 4.000000, 4.000000, 4.000000, 4.000000, 4.000000, 4.000000, 4.000000, 4.000000, 4.000000, 4.000000, 4.000000, 4.000000, 4.000000, 4.000000, 4.000000
105.000000, 0.000000, 4194.871582, 4170.256348, 4179.487305, 4170.769043, 4186.153809, 4186.153809, 4185.641113, 4192.307617, 4202.051270, 4209.743652, 4228.717773, 4221.538574, 4186.153809, 4193.846191, 3153.000000, 8221.000000, 8154.000000, 0.000000, 0.000000, 0.000000, 1.000000, 426.666687, 1545658646.602667, 4.000000, 4.000000, 4.000000, 4.000000, 4.000000, 4.000000, 4.000000, 4.000000, 4.000000, 4.000000, 4.000000, 4.000000, 4.000000, 4.000000, 4.000000, 4.000000
106.000000, 0.000000, 4193.333008, 4163.589844, 4181.538574, 4172.820313, 4184.102539, 4193.333008, 4194.358887, 4203.076660, 4201.538574, 4212.820313, 4232.307617, 4223.589844, 4191.794922, 4199.487305, 3554.000000, 8221.000000, 8154.000000, 0.000000, 0.000000, 0.000000, 1.000000, 434.358948, 1545658646.610359, 4.000000, 4.000000, 4.000000, 4.000000, 4.000000, 4.000000, 4.000000, 4.000000, 4.000000, 4.000000, 4.000000, 4.000000, 4.000000, 4.000000, 4.000000, 4.000000
107.000000, 0.000000, 4205.641113, 4182.051270, 4190.769043, 4188.205078, 4198.461426, 4206.153809, 4211.281738, 4201.025391, 4205.127930, 4219.487305, 4237.436035, 4236.410156, 4203.076660, 4208.717773, 3074.000000, 8221.000000, 8160.000000, 0.000000, 0.000000, 0.000000, 1.000000, 441.538452, 1545658646.617539, 4.000000, 4.000000, 4.000000, 4.000000, 4.000000, 4.000000, 4.000000, 4.000000, 4.000000, 4.000000, 4.000000, 4.000000, 4.000000, 4.000000, 4.000000, 4.000000
108.000000, 0.000000, 4205.641113, 4181.538574, 4186.153809, 4182.563965, 4197.436035, 4205.127930, 4210.769043, 4200.512695, 4204.615234, 4215.384277, 4226.666504, 4233.333008, 4188.205078, 4206.153809, 3526.000000, 8221.000000, 8160.000000, 0.000000, 0.000000, 0.000000, 1.000000, 449.230774, 1545658646.625231, 4.000000, 4.000000, 4.000000, 4.000000, 4.000000, 4.000000, 4.000000, 4.000000, 4.000000, 4.000000, 4.000000, 4.000000, 4.000000, 4.000000, 4.000000, 4.000000
109.000000, 0.000000, 4193.846191, 4163.589844, 4174.871582, 4168.717773, 4181.538574, 4194.871582, 4197.948730, 4202.563965, 4202.563965, 4206.153809, 4213.333008, 4216.922852, 4171.794922, 4196.922852, 3153.000000, 8221.000000, 8155.000000, 0.000000, 0.000000, 0.000000, 1.000000, 456.410278, 1545658646.632410, 4.000000, 4.000000, 4.000000, 4.000000, 4.000000, 4.000000, 4.000000, 4.000000, 4.000000, 4.000000, 4.000000, 4.000000, 4.000000, 4.000000, 4.000000, 4.000000
110.000000, 0.000000, 4204.615234, 4177.436035, 4186.153809, 4184.615234, 4191.281738, 4200.000000, 4201.538574, 4207.179199, 4215.384277, 4215.897461, 4227.179199, 4227.179199, 4188.717773, 4209.743652, 3554.000000, 8221.000000, 8155.000000, 0.000000, 0.000000, 0.000000, 1.000000, 464.102539, 1545658646.640103, 4.000000, 4.000000, 4.000000, 4.000000, 4.000000, 4.000000, 4.000000, 4.000000, 4.000000, 4.000000, 4.000000, 4.000000, 4.000000, 4.000000, 4.000000, 4.000000
111.000000, 0.000000, 4215.384277, 4192.820313, 4195.897461, 4192.307617, 4200.000000, 4199.487305, 4202.563965, 4200.000000, 4215.897461, 4225.127930, 4240.000000, 4237.948730, 4198.974121, 4221.538574, 3074.000000, 8224.000000, 8158.000000, 0.000000, 0.000000, 0.000000, 1.000000, 471.282043, 1545658646.647282, 4.000000, 4.000000, 4.000000, 4.000000, 4.000000, 4.000000, 4.000000, 4.000000, 4.000000, 4.000000, 4.000000, 4.000000, 4.000000, 4.000000, 4.000000, 4.000000
112.000000, 0.000000, 4202.563965, 4171.794922, 4181.538574, 4170.769043, 4182.563965, 4188.205078, 4189.743652, 4186.666504, 4198.461426, 4210.256348, 4222.563965, 4221.538574, 4177.436035, 4205.127930, 3526.000000, 8224.000000, 8158.000000, 0.000000, 0.000000, 0.000000, 1.000000, 478.974365, 1545658646.654974, 4.000000, 4.000000, 4.000000, 4.000000, 4.000000, 4.000000, 4.000000, 4.000000, 4.000000, 4.000000, 4.000000, 4.000000, 4.000000, 4.000000, 4.000000, 4.000000
113.000000, 0.000000, 4194.358887, 4151.794922, 4168.717773, 4159.487305, 4172.307617, 4186.153809, 4188.717773, 4187.692383, 4190.769043, 4195.384277, 4207.692383, 4210.256348, 4163.076660, 4192.820313, 3153.000000, 8227.000000, 8163.000000, 0.000000, 0.000000, 0.000000, 1.000000, 486.153870, 1545658646.662154, 4.000000, 4.000000, 4.000000, 4.000000, 4.000000, 4.000000, 4.000000, 4.000000, 4.000000, 4.000000, 4.000000, 4.000000, 4.000000, 4.000000, 4.000000, 4.000000
114.000000, 0.000000, 4200.512695, 4156.922852, 4173.846191, 4168.717773, 4182.051270, 4190.769043, 4196.922852, 4198.974121, 4198.461426, 4200.000000, 4215.897461, 4217.436035, 4170.769043, 4200.000000, 3554.000000, 8227.000000, 8163.000000, 0.000000, 0.000000, 0.000000, 1.000000, 493.846130, 1545658646.669846, 4.000000, 4.000000, 4.000000, 4.000000, 4.000000, 4.000000, 4.000000, 4.000000, 4.000000, 4.000000, 4.000000, 4.000000, 4.000000, 4.000000, 4.000000, 4.000000
115.000000, 0.000000, 4205.127930, 4164.615234, 4180.512695, 4172.307617, 4184.102539, 4197.948730, 4203.589844, 4209.743652, 4212.307617, 4215.897461, 4224.102539, 4224.102539, 4177.436035, 4204.615234, 3074.000000, 8231.000000, 8170.000000, 0.000000, 0.000000, 0.000000, 1.000000, 501.025635, 1545658646.677026, 4.000000, 4.000000, 4.000000, 4.000000, 4.000000, 4.000000, 4.000000, 4.000000, 4.000000, 4.000000, 4.000000, 4.000000, 4.000000, 4.000000, 4.000000, 4.000000
116.000000, 0.000000, 4196.922852, 4157.948730, 4169.743652, 4161.025391, 4172.307617, 4195.897461, 4204.615234, 4221.025391, 4217.436035, 4218.974121, 4214.871582, 4214.358887, 4167.692383, 4195.384277, 3526.000000, 8231.000000, 8170.000000, 0.000000, 0.000000, 0.000000, 1.000000, 508.717957, 1545658646.684718, 4.000000, 4.000000, 4.000000, 4.000000, 4.000000, 4.000000, 4.000000, 4.000000, 4.000000, 4.000000, 4.000000, 4.000000, 4.000000, 4.000000, 4.000000, 4.000000
117.000000, 0.000000, 4185.641113, 4142.563965, 4156.410156, 4152.307617, 4164.615234, 4181.538574, 4198.974121, 4220.000000, 4208.205078, 4206.153809, 4202.051270, 4202.563965, 4153.846191, 4182.563965, 3153.000000, 8230.000000, 8159.000000, 0.000000, 0.000000, 0.000000, 1.000000, 515.897461, 1545658646.691897, 4.000000, 4.000000, 4.000000, 4.000000, 4.000000, 4.000000, 4.000000, 4.000000, 4.000000, 4.000000, 4.000000, 4.000000, 4.000000, 4.000000, 4.000000, 4.000000
118.000000, 0.000000, 4191.281738, 4141.538574, 4163.076660, 4154.871582, 4166.666504, 4178.461426, 4198.974121, 4207.179199, 4202.563965, 4204.102539, 4202.051270, 4205.641113, 4155.384277, 4182.051270, 3554.000000, 8230.000000, 8159.000000, 0.000000, 0.000000, 0.000000, 1.000000, 523.589722, 1545658646.699589, 4.000000, 4.000000, 4.000000, 4.000000, 4.000000, 4.000000, 4.000000, 4.000000, 4.000000, 4.000000, 4.000000, 4.000000, 4.000000, 4.000000, 4.000000, 4.000000
119.000000, 0.000000, 4202.051270, 4151.281738, 4171.281738, 4156.410156, 4169.230469, 4182.563965, 4198.461426, 4201.538574, 4200.000000, 4205.127930, 4203.589844, 4208.717773, 4155.384277, 4187.179199, 3074.000000, 8224.000000, 8162.000000, 0.000000, 0.000000, 0.000000, 1.000000, 530.769226, 1545658646.706769, 4.000000, 4.000000, 4.000000, 4.000000, 4.000000, 4.000000, 4.000000, 4.000000, 4.000000, 4.000000, 4.000000, 4.000000, 4.000000, 4.000000, 4.000000, 4.000000
120.000000, 0.000000, 4198.974121, 4151.794922, 4164.615234, 4157.948730, 4167.179199, 4172.307617, 4180.512695, 4193.333008, 4186.153809, 4190.769043, 4193.846191, 4201.538574, 4141.538574, 4182.051270, 3526.000000, 8224.000000, 8162.000000, 0.000000, 0.000000, 0.000000, 1.000000, 538.461548, 1545658646.714461, 4.000000, 4.000000, 4.000000, 4.000000, 4.000000, 4.000000, 4.000000, 4.000000, 4.000000, 4.000000, 4.000000, 4.000000, 4.000000, 4.000000, 4.000000, 4.000000
121.000000, 0.000000, 4198.461426, 4156.922852, 4165.127930, 4165.641113, 4170.769043, 4165.127930, 4164.615234, 4182.563965, 4180.000000, 4188.717773, 4192.820313, 4207.692383, 4143.589844, 4181.538574, 3153.000000, 8215.000000, 8156.000000, 0.000000, 0.000000, 0.000000, 1.000000, 546.153870, 1545658646.722154, 4.000000, 4.000000, 4.000000, 4.000000, 4.000000, 4.000000, 4.000000, 4.000000, 4.000000, 4.000000, 4.000000, 4.000000, 4.000000, 4.000000, 4.000000, 4.000000
122.000000, 0.000000, 4209.230469, 4172.820313, 4174.358887, 4171.794922, 4178.461426, 4174.358887, 4170.256348, 4183.076660, 4186.666504, 4203.589844, 4207.692383, 4221.025391, 4160.000000, 4193.333008, 3554.000000, 8215.000000, 8156.000000, 0.000000, 0.000000, 0.000000, 1.000000, 553.333313, 1545658646.729333, 4.000000, 4.000000, 4.000000, 4.000000, 4.000000, 4.000000, 4.000000, 4.000000, 4.000000, 4.000000, 4.000000, 4.000000, 4.000000, 4.000000, 4.000000, 4.000000
123.000000, 0.000000, 4202.563965, 4168.717773, 4163.076660, 4168.717773, 4175.384277, 4172.307617, 4173.333008, 4174.871582, 4174.358887, 4191.794922, 4198.974121, 4204.615234, 4156.410156, 4185.641113, 3074.000000, 8212.000000, 8165.000000, 0.000000, 0.000000, 0.000000, 1.000000, 561.025635, 1545658646.737026, 4.000000, 4.000000, 4.000000, 4.000000, 4.000000, 4.000000, 4.000000, 4.000000, 4.000000, 4.000000, 4.000000, 4.000000, 4.000000, 4.000000, 4.000000, 4.000000
124.000000, 0.000000, 4196.922852, 4160.512695, 4154.358887, 4166.666504, 4171.794922, 4170.256348, 4173.333008, 4166.666504, 4165.641113, 4174.871582, 4184.615234, 4192.307617, 4160.512695, 4178.461426, 3526.000000, 8212.000000, 8165.000000, 0.000000, 0.000000, 0.000000, 1.000000, 568.205139, 1545658646.744205, 4.000000, 4.000000, 4.000000, 4.000000, 4.000000, 4.000000, 4.000000, 4.000000, 4.000000, 4.000000, 4.000000, 4.000000, 4.000000, 4.000000, 4.000000, 4.000000
125.000000, 0.000000, 4220.512695, 4180.512695, 4177.948730, 4182.051270, 4190.769043, 4192.307617, 4193.846191, 4193.333008, 4193.846191, 4199.487305, 4206.153809, 4218.461426, 4207.692383, 4202.563965, 3153.000000, 8222.000000, 8164.000000, 0.000000, 0.000000, 0.000000, 1.000000, 575.897461, 1545658646.751898, 4.000000, 4.000000, 4.000000, 4.000000, 4.000000, 4.000000, 4.000000, 4.000000, 4.000000, 4.000000, 4.000000, 4.000000, 4.000000, 4.000000, 4.000000, 4.000000
126.000000, 0.000000, 4229.230469, 4192.820313, 4193.333008, 4192.820313, 4205.641113, 4209.743652, 4212.307617, 4222.563965, 4216.410156, 4222.563965, 4226.666504, 4234.871582, 4249.230469, 4216.922852, 3554.000000, 8222.000000, 8164.000000, 0.000000, 0.000000, 0.000000, 1.000000, 583.076904, 1545658646.759077, 4.000000, 4.000000, 4.000000, 4.000000, 4.000000, 4.000000, 4.000000, 4.000000, 4.000000, 4.000000, 4.000000, 4.000000, 4.000000, 4.000000, 4.000000, 4.000000
127.000000, 0.000000, 4205.641113, 4166.666504, 4176.410156, 4177.436035, 4191.281738, 4197.436035, 4203.589844, 4205.641113, 4199.487305, 4206.153809, 4212.307617, 4215.384277, 4249.743652, 4195.897461, 56.000000, 8224.000000, 8177.000000, 0.000000, 0.000000, 0.000000, 1.000000, 590.769226, 1545658646.766769, 4.000000, 4.000000, 4.000000, 4.000000, 4.000000, 4.000000, 4.000000, 4.000000, 4.000000, 4.000000, 4.000000, 4.000000, 4.000000, 4.000000, 4.000000, 4.000000
0.000000, 0.000000, 4192.307617, 4149.230469, 4163.076660, 4163.589844, 4177.948730, 4183.076660, 4186.153809, 4192.307617, 4187.179199, 4192.820313, 4195.897461, 4199.487305, 4251.281738, 4177.948730, 3297.000000, 8224.000000, 8177.000000, 0.000000, 0.000000, 0.000000, 1.000000, 597.948740, 1545658646.773949, 4.000000, 4.000000, 4.000000, 4.000000, 4.000000, 4.000000, 4.000000, 4.000000, 4.000000, 4.000000, 4.000000, 4.000000, 4.000000, 4.000000, 4.000000, 4.000000
1.000000, 0.000000, 4193.846191, 4154.871582, 4163.076660, 4163.076660, 4182.563965, 4183.589844, 4187.179199, 4216.922852, 4204.102539, 4204.102539, 4201.025391, 4204.102539, 4271.794922, 4175.897461, 3517.000000, 8223.000000, 8169.000000, 0.000000, 0.000000, 0.000000, 1.000000, 605.641047, 1545658646.781641, 4.000000, 4.000000, 4.000000, 4.000000, 4.000000, 4.000000, 4.000000, 4.000000, 4.000000, 4.000000, 4.000000, 4.000000, 4.000000, 4.000000, 4.000000, 4.000000
2.000000, 0.000000, 4187.179199, 4149.230469, 4160.000000, 4161.538574, 4190.769043, 4187.179199, 4197.948730, 4216.410156, 4207.692383, 4205.127930, 4204.615234, 4206.153809, 4281.025391, 4170.769043, 3296.000000, 8223.000000, 8169.000000, 0.000000, 0.000000, 0.000000, 1.000000, 612.820534, 1545658646.788821, 4.000000, 4.000000, 4.000000, 4.000000, 4.000000, 4.000000, 4.000000, 4.000000, 4.000000, 4.000000, 4.000000, 4.000000, 4.000000, 4.000000, 4.000000, 4.000000
3.000000, 0.000000, 4185.641113, 4147.692383, 4160.000000, 4168.205078, 4196.410156, 4193.333008, 4202.051270, 4181.025391, 4185.641113, 4195.897461, 4195.897461, 4201.538574, 4277.436035, 4166.153809, 3571.000000, 8227.000000, 8150.000000, 0.000000, 0.000000, 0.000000, 1.000000, 620.512842, 1545658646.796513, 4.000000, 4.000000, 4.000000, 4.000000, 4.000000, 4.000000, 4.000000, 4.000000, 4.000000, 4.000000, 4.000000, 4.000000, 4.000000, 4.000000, 4.000000, 4.000000
4.000000, 0.000000, 4197.436035, 4181.538574, 4168.717773, 4187.179199, 4204.615234, 4204.102539, 4203.076660, 4181.538574, 4182.051270, 4198.974121, 4189.743652, 4203.589844, 4278.974121, 4169.230469, 3406.000000, 8227.000000, 8150.000000, 0.000000, 0.000000, 0.000000, 1.000000, 627.692329, 1545658646.803692, 4.000000, 4.000000, 4.000000, 4.000000, 4.000000, 4.000000, 4.000000, 4.000000, 4.000000, 4.000000, 4.000000, 4.000000, 4.000000, 4.000000, 4.000000, 4.000000
5.000000, 0.000000, 4200.000000, 4211.281738, 4170.256348, 4193.846191, 4210.769043, 4205.127930, 4199.487305, 4201.025391, 4192.820313, 4197.436035, 4187.692383, 4204.615234, 4274.871582, 4167.179199, 3485.000000, 8219.000000, 8140.000000, 0.000000, 0.000000, 0.000000, 1.000000, 635.384636, 1545658646.811384, 4.000000, 4.000000, 4.000000, 4.000000, 4.000000, 4.000000, 4.000000, 4.000000, 4.000000, 4.000000, 4.000000, 4.000000, 4.000000, 4.000000, 4.000000, 4.000000
6.000000, 0.000000, 4183.076660, 4200.000000, 4153.846191, 4180.000000, 4203.076660, 4186.153809, 4176.922852, 4174.358887, 4173.333008, 4173.333008, 4169.230469, 4187.692383, 4242.051270, 4147.692383, 3418.000000, 8219.000000, 8140.000000, 0.000000, 0.000000, 0.000000, 1.000000, 642.564125, 1545658646.818564, 4.000000, 4.000000, 4.000000, 4.000000, 4.000000, 4.000000, 4.000000, 4.000000, 4.000000, 4.000000, 4.000000, 4.000000, 4.000000, 4.000000, 4.000000, 4.000000
7.000000, 0.000000, 4165.641113, 4184.102539, 4136.922852, 4165.641113, 4185.641113, 4170.769043, 4153.333008, 4144.102539, 4144.102539, 4150.256348, 4138.974121, 4168.205078, 4204.102539, 4123.589844, 3217.000000, 8221.000000, 8134.000000, 0.000000, 0.000000, 0.000000, 1.000000, 650.256432, 1545658646.826256, 4.000000, 4.000000, 4.000000, 4.000000, 4.000000, 4.000000, 4.000000, 4.000000, 4.000000, 4.000000, 4.000000, 4.000000, 4.000000, 4.000000, 4.000000, 4.000000
8.000000, 0.000000, 4168.717773, 4191.794922, 4143.076660, 4169.230469, 4179.487305, 4168.717773, 4155.897461, 4157.436035, 4143.076660, 4148.717773, 4130.256348, 4168.717773, 4193.846191, 4120.000000, 3424.000000, 8221.000000, 8134.000000, 0.000000, 0.000000, 0.000000, 1.000000, 657.435917, 1545658646.833436, 4.000000, 4.000000, 4.000000, 4.000000, 4.000000, 4.000000, 4.000000, 4.000000, 4.000000, 4.000000, 4.000000, 4.000000, 4.000000, 4.000000, 4.000000, 4.000000
9.000000, 0.000000, 4176.922852, 4207.692383, 4156.922852, 4185.127930, 4187.692383, 4171.794922, 4167.692383, 4166.666504, 4151.281738, 4154.871582, 4137.436035, 4175.384277, 4193.846191, 4128.205078, 3250.000000, 8220.000000, 8138.000000, 0.000000, 0.000000, 0.000000, 1.000000, 665.128227, 1545658646.841128, 4.000000, 4.000000, 4.000000, 4.000000, 4.000000, 4.000000, 4.000000, 4.000000, 4.000000, 4.000000, 4.000000, 4.000000, 4.000000, 4.000000, 4.000000, 4.000000
10.000000, 0.000000, 4170.769043, 4210.769043, 4153.846191, 4186.666504, 4187.179199, 4175.384277, 4170.769043, 4168.717773, 4157.948730, 4157.948730, 4136.410156, 4170.769043, 4178.461426, 4125.641113, 3543.000000, 8220.000000, 8138.000000, 0.000000, 0.000000, 0.000000, 1.000000, 672.307709, 1545658646.848308, 4.000000, 4.000000, 4.000000, 4.000000, 4.000000, 4.000000, 4.000000, 4.000000, 4.000000, 4.000000, 4.000000, 4.000000, 4.000000, 4.000000, 4.000000, 4.000000
11.000000, 0.000000, 4167.692383, 4203.589844, 4151.794922, 4181.538574, 4182.563965, 4181.025391, 4176.410156, 4187.692383, 4169.743652, 4162.563965, 4134.358887, 4167.179199, 4165.127930, 4122.051270, 3204.000000, 8217.000000, 8150.000000, 0.000000, 0.000000, 0.000000, 1.000000, 680.000023, 1545658646.856000, 4.000000, 4.000000, 4.000000, 4.000000, 4.000000, 4.000000, 4.000000, 4.000000, 4.000000, 4.000000, 4.000000, 4.000000, 4.000000, 4.000000, 4.000000, 4.000000
12.000000, 0.000000, 4171.794922, 4202.563965, 4158.974121, 4186.153809, 4186.666504, 4183.076660, 4181.025391, 4179.487305, 4163.076660, 4163.076660, 4137.948730, 4171.281738, 4166.666504, 4127.692383, 3517.000000, 8217.000000, 8150.000000, 0.000000, 0.000000, 0.000000, 1.000000, 687.692329, 1545658646.863692, 4.000000, 4.000000, 4.000000, 4.000000, 4.000000, 4.000000, 4.000000, 4.000000, 4.000000, 4.000000, 4.000000, 4.000000, 4.000000, 4.000000, 4.000000, 4.000000
13.000000, 0.000000, 4170.256348, 4204.615234, 4156.410156, 4184.615234, 4192.307617, 4180.512695, 4180.000000, 4160.512695, 4151.281738, 4160.512695, 4140.512695, 4172.307617, 4170.256348, 4133.333008, 3137.000000, 8214.000000, 8147.000000, 0.000000, 0.000000, 0.000000, 1.000000, 694.871811, 1545658646.870872, 4.000000, 4.000000, 4.000000, 4.000000, 4.000000, 4.000000, 4.000000, 4.000000, 4.000000, 4.000000, 4.000000, 4.000000, 4.000000, 4.000000, 4.000000, 4.000000
14.000000, 0.000000, 4176.410156, 4211.281738, 4165.127930, 4189.743652, 4201.025391, 4195.384277, 4193.846191, 4188.717773, 4174.358887, 4176.410156, 4154.358887, 4183.076660, 4179.487305, 4145.127930, 3543.000000, 8214.000000, 8147.000000, 0.000000, 0.000000, 0.000000, 1.000000, 702.564125, 1545658646.878564, 4.000000, 4.000000, 4.000000, 4.000000, 4.000000, 4.000000, 4.000000, 4.000000, 4.000000, 4.000000, 4.000000, 4.000000, 4.000000, 4.000000, 4.000000, 4.000000
15.000000, 0.000000, 4197.948730, 4234.871582, 4193.846191, 4211.794922, 4215.897461, 4220.000000, 4218.974121, 4212.820313, 4206.153809, 4203.589844, 4181.025391, 4210.769043, 4202.051270, 4167.179199, 3204.000000, 8206.000000, 8143.000000, 0.000000, 0.000000, 0.000000, 1.000000, 709.743607, 1545658646.885744, 4.000000, 4.000000, 4.000000, 4.000000, 4.000000, 4.000000, 4.000000, 4.000000, 4.000000, 4.000000, 4.000000, 4.000000, 4.000000, 4.000000, 4.000000, 4.000000
16.000000, 0.000000, 4207.692383, 4250.769043, 4202.563965, 4224.615234, 4222.563965, 4219.487305, 4212.307617, 4188.205078, 4202.563965, 4206.666504, 4195.384277, 4221.025391, 4209.230469, 4178.974121, 0.000000, 8206.000000, 8143.000000, 0.000000, 0.000000, 0.000000, 1.000000, 717.435913, 1545658646.893436, 4.000000, 4.000000, 4.000000, 4.000000, 4.000000, 4.000000, 4.000000, 4.000000, 4.000000, 4.000000, 4.000000, 4.000000, 4.000000, 4.000000, 4.000000, 4.000000
17.000000, 0.000000, 4202.051270, 4240.512695, 4191.794922, 4219.487305, 4209.743652, 4196.410156, 4185.641113, 4180.512695, 4188.717773, 4190.769043, 4183.589844, 4205.641113, 4193.846191, 4170.256348, 0.000000, 8210.000000, 8151.000000, 0.000000, 0.000000, 0.000000, 1.000000, 724.615402, 1545658646.900615, 4.000000, 4.000000, 4.000000, 4.000000, 4.000000, 4.000000, 4.000000, 4.000000, 4.000000, 4.000000, 4.000000, 4.000000, 4.000000, 4.000000, 4.000000, 4.000000
18.000000, 0.000000, 4199.487305, 4230.256348, 4189.743652, 4213.333008, 4197.948730, 4185.641113, 4178.461426, 4194.358887, 4187.692383, 4184.102539, 4171.281738, 4198.461426, 4184.102539, 4158.461426, 0.000000, 8210.000000, 8151.000000, 0.000000, 0.000000, 0.000000, 1.000000, 732.307709, 1545658646.908308, 4.000000, 4.000000, 4.000000, 4.000000, 4.000000, 4.000000, 4.000000, 4.000000, 4.000000, 4.000000, 4.000000, 4.000000, 4.000000, 4.000000, 4.000000, 4.000000
19.000000, 0.000000, 4197.948730, 4231.794922, 4191.794922, 4209.230469, 4196.922852, 4187.692383, 4184.102539, 4187.179199, 4186.666504, 4183.589844, 4173.846191, 4204.102539, 4180.512695, 4158.461426, 0.000000, 8212.000000, 8160.000000, 0.000000, 0.000000, 0.000000, 1.000000, 739.487198, 1545658646.915487, 4.000000, 4.000000, 4.000000, 4.000000, 4.000000, 4.000000, 4.000000, 4.000000, 4.000000, 4.000000, 4.000000, 4.000000, 4.000000, 4.000000, 4.000000, 4.000000
20.000000, 0.000000, 4189.743652, 4222.563965, 4187.179199, 4202.051270, 4196.922852, 4186.153809, 4185.641113, 4188.717773, 4181.538574, 4174.358887, 4170.769043, 4196.922852, 4165.127930, 4155.384277, 0.000000, 8212.000000, 8160.000000, 0.000000, 0.000000, 0.000000, 1.000000, 747.179504, 1545658646.923179, 4.000000, 4.000000, 4.000000, 4.000000, 4.000000, 4.000000, 4.000000, 4.000000, 4.000000, 4.000000, 4.000000, 4.000000, 4.000000, 4.000000, 4.000000, 4.000000
21.000000, 0.000000, 4177.948730, 4207.179199, 4179.487305, 4197.948730, 4193.333008, 4189.743652, 4192.307617, 4201.538574, 4175.897461, 4165.641113, 4157.436035, 4178.461426, 4150.769043, 4144.102539, 0.000000, 8214.000000, 8150.000000, 0.000000, 0.000000, 0.000000, 1.000000, 754.358994, 1545658646.930359, 4.000000, 4.000000, 4.000000, 4.000000, 4.000000, 4.000000, 4.000000, 4.000000, 4.000000, 4.000000, 4.000000, 4.000000, 4.000000, 4.000000, 4.000000, 4.000000
22.000000, 0.000000, 4172.307617, 4208.717773, 4173.846191, 4200.512695, 4199.487305, 4202.051270, 4202.563965, 4192.307617, 4172.307617, 4168.717773, 4151.281738, 4170.769043, 4151.794922, 4135.897461, 0.000000, 8214.000000, 8150.000000, 0.000000, 0.000000, 0.000000, 1.000000, 762.051300, 1545658646.938051, 4.000000, 4.000000, 4.000000, 4.000000, 4.000000, 4.000000, 4.000000, 4.000000, 4.000000, 4.000000, 4.000000, 4.000000, 4.000000, 4.000000, 4.000000, 4.000000
23.000000, 0.000000, 4170.256348, 4216.410156, 4172.307617, 4202.563965, 4204.615234, 4209.743652, 4206.153809, 4191.281738, 4173.846191, 4175.897461, 4155.897461, 4175.384277, 4151.281738, 4138.974121, 0.000000, 8212.000000, 8163.000000, 0.000000, 0.000000, 0.000000, 1.000000, 769.230789, 1545658646.945231, 4.000000, 4.000000, 4.000000, 4.000000, 4.000000, 4.000000, 4.000000, 4.000000, 4.000000, 4.000000, 4.000000, 4.000000, 4.000000, 4.000000, 4.000000, 4.000000
24.000000, 0.000000, 4168.205078, 4218.461426, 4177.436035, 4202.051270, 4202.563965, 4210.769043, 4205.127930, 4200.512695, 4178.974121, 4179.487305, 4161.025391, 4181.538574, 4147.692383, 4148.205078, 0.000000, 8212.000000, 8163.000000, 0.000000, 0.000000, 0.000000, 1.000000, 776.923096, 1545658646.952923, 4.000000, 4.000000, 4.000000, 4.000000, 4.000000, 4.000000, 4.000000, 4.000000, 4.000000, 4.000000, 4.000000, 4.000000, 4.000000, 4.000000, 4.000000, 4.000000
25.000000, 0.000000, 4173.846191, 4224.102539, 4182.563965, 4206.153809, 4208.717773, 4211.794922, 4204.615234, 4191.794922, 4183.589844, 4184.615234, 4169.743652, 4184.102539, 4154.358887, 4152.307617, 0.000000, 8215.000000, 8161.000000, 0.000000, 0.000000, 0.000000, 1.000000, 784.615402, 1545658646.960615, 4.000000, 4.000000, 4.000000, 4.000000, 4.000000, 4.000000, 4.000000, 4.000000, 4.000000, 4.000000, 4.000000, 4.000000, 4.000000, 4.000000, 4.000000, 4.000000
26.000000, 0.000000, 4184.615234, 4232.820313, 4188.717773, 4219.487305, 4216.922852, 4214.871582, 4211.281738, 4191.281738, 4192.307617, 4193.846191, 4179.487305, 4186.666504, 4164.102539, 4153.846191, 0.000000, 8215.000000, 8161.000000, 0.000000, 0.000000, 0.000000, 1.000000, 791.794891, 1545658646.967795, 4.000000, 4.000000, 4.000000, 4.000000, 4.000000, 4.000000, 4.000000, 4.000000, 4.000000, 4.000000, 4.000000, 4.000000, 4.000000, 4.000000, 4.000000, 4.000000
27.000000, 0.000000, 4176.922852, 4228.205078, 4186.666504, 4220.000000, 4209.230469, 4207.179199, 4209.743652, 4198.974121, 4192.820313, 4194.358887, 4176.922852, 4184.615234, 4155.897461, 4154.871582, 0.000000, 8211.000000, 8157.000000, 0.000000, 0.000000, 0.000000, 1.000000, 799.487198, 1545658646.975487, 4.000000, 4.000000, 4.000000, 4.000000, 4.000000, 4.000000, 4.000000, 4.000000, 4.000000, 4.000000, 4.000000, 4.000000, 4.000000, 4.000000, 4.000000, 4.000000
28.000000, 0.000000, 4156.410156, 4209.743652, 4172.307617, 4195.897461, 4191.281738, 4187.692383, 4188.717773, 4181.025391, 4177.436035, 4182.563965, 4166.153809, 4177.948730, 4138.974121, 4151.794922, 0.000000, 8211.000000, 8157.000000, 0.000000, 0.000000, 0.000000, 1.000000, 806.666687, 1545658646.982667, 4.000000, 4.000000, 4.000000, 4.000000, 4.000000, 4.000000, 4.000000, 4.000000, 4.000000, 4.000000, 4.000000, 4.000000, 4.000000, 4.000000, 4.000000, 4.000000
29.000000, 0.000000, 4155.897461, 4200.512695, 4171.794922, 4181.025391, 4184.615234, 4181.025391, 4177.436035, 4165.127930, 4170.256348, 4176.410156, 4163.589844, 4177.436035, 4140.512695, 4150.256348, 0.000000, 8212.000000, 8154.000000, 0.000000, 0.000000, 0.000000, 1.000000, 814.358994, 1545658646.990359, 4.000000, 4.000000, 4.000000, 4.000000, 4.000000, 4.000000, 4.000000, 4.000000, 4.000000, 4.000000, 4.000000, 4.000000, 4.000000, 4.000000, 4.000000, 4.000000
30.000000, 0.000000, 4172.820313, 4210.769043, 4189.230469, 4194.358887, 4190.769043, 4188.205078, 4185.127930, 4180.512695, 4183.589844, 4186.153809, 4176.922852, 4192.307617, 4160.000000, 4164.102539, 0.000000, 8212.000000, 8154.000000, 0.000000, 0.000000, 0.000000, 1.000000, 821.538483, 1545658646.997539, 4.000000, 4.000000, 4.000000, 4.000000, 4.000000, 4.000000, 4.000000, 4.000000, 4.000000, 4.000000, 4.000000, 4.000000, 4.000000, 4.000000, 4.000000, 4.000000
31.000000, 0.000000, 4183.589844, 4225.127930, 4203.589844, 4210.256348, 4196.922852, 4188.717773, 4186.666504, 4195.384277, 4196.922852, 4197.436035, 4193.333008, 4211.281738, 4170.769043, 4181.538574, 0.000000, 8213.000000, 8162.000000, 0.000000, 0.000000, 0.000000, 1.000000, 829.230789, 1545658647.005231, 4.000000, 4.000000, 4.000000, 4.000000, 4.000000, 4.000000, 4.000000, 4.000000, 4.000000, 4.000000, 4.000000, 4.000000, 4.000000, 4.000000, 4.000000, 4.000000
32.000000, 0.000000, 4183.076660, 4229.743652, 4205.127930, 4211.281738, 4197.948730, 4189.230469, 4188.205078, 4202.563965, 4201.538574, 4200.512695, 4197.436035, 4215.384277, 4173.333008, 4186.153809, 0.000000, 8213.000000, 8162.000000, 0.000000, 0.000000, 0.000000, 1.000000, 836.410278, 1545658647.012410, 4.000000, 4.000000, 4.000000, 4.000000, 4.000000, 4.000000, 4.000000, 4.000000, 4.000000, 4.000000, 4.000000, 4.000000, 4.000000, 4.000000, 4.000000, 4.000000
33.000000, 0.000000, 4181.538574, 4225.641113, 4203.589844, 4211.281738, 4198.974121, 4201.538574, 4201.538574, 4213.333008, 4203.589844, 4200.512695, 4196.922852, 4209.230469, 4180.512695, 4183.589844, 0.000000, 8213.000000, 8161.000000, 0.000000, 0.000000, 0.000000, 1.000000, 844.102585, 1545658647.020103, 4.000000, 4.000000, 4.000000, 4.000000, 4.000000, 4.000000, 4.000000, 4.000000, 4.000000, 4.000000, 4.000000, 4.000000, 4.000000, 4.000000, 4.000000, 4.000000
34.000000, 0.000000, 4181.538574, 4228.717773, 4205.127930, 4213.846191, 4202.051270, 4210.256348, 4210.256348, 4210.769043, 4202.563965, 4202.563965, 4198.974121, 4211.281738, 4187.692383, 4184.102539, 0.000000, 8213.000000, 8161.000000, 0.000000, 0.000000, 0.000000, 1.000000, 851.794891, 1545658647.027795, 4.000000, 4.000000, 4.000000, 4.000000, 4.000000, 4.000000, 4.000000, 4.000000, 4.000000, 4.000000, 4.000000, 4.000000, 4.000000, 4.000000, 4.000000, 4.000000
35.000000, 0.000000, 4176.922852, 4235.897461, 4208.205078, 4217.948730, 4206.153809, 4209.230469, 4209.743652, 4207.692383, 4205.641113, 4205.641113, 4204.102539, 4212.820313, 4189.743652, 4186.153809, 0.000000, 8210.000000, 8154.000000, 0.000000, 0.000000, 0.000000, 1.000000, 858.974365, 1545658647.034974, 4.000000, 4.000000, 4.000000, 4.000000, 4.000000, 4.000000, 4.000000, 4.000000, 4.000000, 4.000000, 4.000000, 4.000000, 4.000000, 4.000000, 4.000000, 4.000000
36.000000, 0.000000, 4170.256348, 4229.230469, 4203.076660, 4213.846191, 4207.179199, 4202.563965, 4199.487305, 4200.512695, 4203.076660, 4200.000000, 4197.436035, 4202.563965, 4181.538574, 4180.000000, 0.000000, 8210.000000, 8154.000000, 0.000000, 0.000000, 0.000000, 1.000000, 866.666687, 1545658647.042667, 4.000000, 4.000000, 4.000000, 4.000000, 4.000000, 4.000000, 4.000000, 4.000000, 4.000000, 4.000000, 4.000000, 4.000000, 4.000000, 4.000000, 4.000000, 4.000000
37.000000, 0.000000, 4167.692383, 4217.436035, 4197.436035, 4205.641113, 4206.153809, 4197.436035, 4189.743652, 4185.127930, 4189.230469, 4189.743652, 4180.512695, 4195.897461, 4167.179199, 4168.717773, 0.000000, 8204.000000, 8151.000000, 0.000000, 0.000000, 0.000000, 1.000000, 873.846161, 1545658647.049846, 4.000000, 4.000000, 4.000000, 4.000000, 4.000000, 4.000000, 4.000000, 4.000000, 4.000000, 4.000000, 4.000000, 4.000000, 4.000000, 4.000000, 4.000000, 4.000000
38.000000, 0.000000, 4169.743652, 4226.153809, 4201.538574, 4209.743652, 4211.794922, 4201.538574, 4198.461426, 4189.230469, 4186.153809, 4186.666504, 4175.384277, 4200.000000, 4163.076660, 4167.179199, 0.000000, 8204.000000, 8151.000000, 0.000000, 0.000000, 0.000000, 1.000000, 881.538483, 1545658647.057539, 4.000000, 4.000000, 4.000000, 4.000000, 4.000000, 4.000000, 4.000000, 4.000000, 4.000000, 4.000000, 4.000000, 4.000000, 4.000000, 4.000000, 4.000000, 4.000000
39.000000, 0.000000, 4165.641113, 4229.230469, 4198.974121, 4212.307617, 4210.256348, 4203.076660, 4204.615234, 4202.051270, 4192.307617, 4188.205078, 4181.538574, 4200.512695, 4171.794922, 4171.794922, 0.000000, 8206.000000, 8153.000000, 0.000000, 0.000000, 0.000000, 1.000000, 889.230774, 1545658647.065231, 4.000000, 4.000000, 4.000000, 4.000000, 4.000000, 4.000000, 4.000000, 4.000000, 4.000000, 4.000000, 4.000000, 4.000000, 4.000000, 4.000000, 4.000000, 4.000000
40.000000, 0.000000, 4158.974121, 4206.153809, 4183.589844, 4195.897461, 4191.281738, 4187.179199, 4180.512695, 4192.307617, 4189.230469, 4189.743652, 4183.589844, 4194.871582, 4181.538574, 4172.307617, 0.000000, 8206.000000, 8153.000000, 0.000000, 0.000000, 0.000000, 1.000000, 896.410278, 1545658647.072410, 4.000000, 4.000000, 4.000000, 4.000000, 4.000000, 4.000000, 4.000000, 4.000000, 4.000000, 4.000000, 4.000000, 4.000000, 4.000000, 4.000000, 4.000000, 4.000000
41.000000, 0.000000, 4170.256348, 4198.461426, 4188.205078, 4191.794922, 4183.589844, 4177.948730, 4168.717773, 4183.076660, 4186.153809, 4193.333008, 4189.743652, 4203.076660, 4198.461426, 4181.538574, 0.000000, 8202.000000, 8144.000000, 0.000000, 0.000000, 0.000000, 1.000000, 904.102570, 1545658647.080102, 4.000000, 4.000000, 4.000000, 4.000000, 4.000000, 4.000000, 4.000000, 4.000000, 4.000000, 4.000000, 4.000000, 4.000000, 4.000000, 4.000000, 4.000000, 4.000000
42.000000, 0.000000, 4194.871582, 4222.051270, 4211.794922, 4210.256348, 4200.512695, 4195.384277, 4194.871582, 4200.512695, 4201.538574, 4209.230469, 4215.384277, 4226.153809, 4228.205078, 4210.769043, 0.000000, 8202.000000, 8144.000000, 0.000000, 0.000000, 0.000000, 1.000000, 911.282074, 1545658647.087282, 4.000000, 4.000000, 4.000000, 4.000000, 4.000000, 4.000000, 4.000000, 4.000000, 4.000000, 4.000000, 4.000000, 4.000000, 4.000000, 4.000000, 4.000000, 4.000000
43.000000, 0.000000, 4203.589844, 4227.692383, 4218.461426, 4211.281738, 4203.076660, 4206.153809, 4206.153809, 4208.717773, 4215.384277, 4222.051270, 4236.922852, 4237.436035, 4253.846191, 4231.281738, 0.000000, 8205.000000, 8147.000000, 0.000000, 0.000000, 0.000000, 1.000000, 918.974365, 1545658647.094974, 4.000000, 4.000000, 4.000000, 4.000000, 4.000000, 4.000000, 4.000000, 4.000000, 4.000000, 4.000000, 4.000000, 4.000000, 4.000000, 4.000000, 4.000000, 4.000000
44.000000, 0.000000, 4199.487305, 4209.743652, 4212.307617, 4199.487305, 4182.051270, 4189.743652, 4186.153809, 4197.436035, 4207.179199, 4215.897461, 4236.410156, 4238.974121, 4264.102539, 4232.307617, 0.000000, 8205.000000, 8147.000000, 0.000000, 0.000000, 0.000000, 1.000000, 926.666687, 1545658647.102667, 4.000000, 4.000000, 4.000000, 4.000000, 4.000000, 4.000000, 4.000000, 4.000000, 4.000000, 4.000000, 4.000000, 4.000000, 4.000000, 4.000000, 4.000000, 4.000000
