title:127 - c, recorded:24.12.18 15.36.42, timestamp started:2018-12-24T15:36:42.754+02:00;1545658602.754, sampling:128, subject:, labels:COUNTER INTERPOLATED AF3 F7 F3 FC5 T7 P7 O1 O2 P8 T8 FC6 F4 F8 AF4 RAW_CQ GYROX GYROY MARKER MARKER_HARDWARE SYNC TIME_STAMP_s TIME_STAMP_ms TimeStamp CQ_AF3 CQ_F7 CQ_F3 CQ_FC5 CQ_T7 CQ_P7 CQ_O1 CQ_O2 CQ_P8 CQ_T8 CQ_FC6 CQ_F4 CQ_F8 CQ_AF4 CQ_CMS CQ_DRL, chan:40, samples:3628, units:emotiv
64.000000, 0.000000, 4185.127930, 4184.615234, 4174.871582, 4179.487305, 4169.743652, 4178.974121, 4186.153809, 4171.281738, 4175.897461, 4158.461426, 4164.102539, 4164.102539, 4176.922852, 4166.153809, 3328.000000, 8220.000000, 8151.000000, 1.000000, 5.000000, 0.000000, 0.000000, 0.000000, 1545658602.754000, 4.000000, 4.000000, 4.000000, 4.000000, 4.000000, 4.000000, 4.000000, 4.000000, 4.000000, 4.000000, 4.000000, 4.000000, 4.000000, 4.000000, 4.000000, 4.000000
65.000000, 0.000000, 4178.974121, 4171.281738, 4167.179199, 4166.666504, 4154.871582, 4168.205078, 4181.538574, 4173.333008, 4173.846191, 4158.974121, 4160.512695, 4160.000000, 4169.743652, 4158.974121, 3613.000000, 8225.000000, 8161.000000, 0.000000, 0.000000, 0.000000, 0.000000, 7.692261, 1545658602.761692, 4.000000, 4.000000, 4.000000, 4.000000, 4.000000, 4.000000, 4.000000, 4.000000, 4.000000, 4.000000, 4.000000, 4.000000, 4.000000, 4.000000, 4.000000, 4.000000
66.000000, 0.000000, 4183.589844, 4177.436035, 4170.769043, 4174.358887, 4166.153809, 4178.461426, 4177.948730, 4169.743652, 4176.410156, 4163.589844, 4162.563965, 4168.717773, 4173.846191, 4168.205078, 3310.000000, 8225.000000, 8161.000000, 0.000000, 0.000000, 0.000000, 0.000000, 15.384583, 1545658602.769385, 4.000000, 4.000000, 4.000000, 4.000000, 4.000000, 4.000000, 4.000000, 4.000000, 4.000000, 4.000000, 4.000000, 4.000000, 4.000000, 4.000000, 4.000000, 4.000000
67.000000, 0.000000, 4193.846191, 4194.358887, 4184.102539, 4189.743652, 4183.589844, 4194.358887, 4189.743652, 4185.641113, 4191.281738, 4174.358887, 4174.358887, 4180.512695, 4188.717773, 4179.487305, 3573.000000, 8225.000000, 8163.000000, 0.000000, 0.000000, 0.000000, 0.000000, 23.076929, 1545658602.777077, 4.000000, 4.000000, 4.000000, 4.000000, 4.000000, 4.000000, 4.000000, 4.000000, 4.000000, 4.000000, 4.000000, 4.000000, 4.000000, 4.000000, 4.000000, 4.000000
68.000000, 0.000000, 4198.974121, 4194.358887, 4188.205078, 4194.358887, 4181.538574, 4189.230469, 4193.333008, 4186.666504, 4194.358887, 4179.487305, 4178.461426, 4182.563965, 4185.127930, 4180.000000, 3395.000000, 8225.000000, 8163.000000, 0.000000, 0.000000, 0.000000, 0.000000, 31.282057, 1545658602.785282, 4.000000, 4.000000, 4.000000, 4.000000, 4.000000, 4.000000, 4.000000, 4.000000, 4.000000, 4.000000, 4.000000, 4.000000, 4.000000, 4.000000, 4.000000, 4.000000
69.000000, 0.000000, 4198.461426, 4187.179199, 4186.666504, 4191.794922, 4173.846191, 4182.563965, 4190.769043, 4173.846191, 4185.127930, 4175.897461, 4174.358887, 4183.589844, 4173.333008, 4182.051270, 3484.000000, 8222.000000, 8150.000000, 0.000000, 0.000000, 0.000000, 0.000000, 38.974365, 1545658602.792974, 4.000000, 4.000000, 4.000000, 4.000000, 4.000000, 4.000000, 4.000000, 4.000000, 4.000000, 4.000000, 4.000000, 4.000000, 4.000000, 4.000000, 4.000000, 4.000000
70.000000, 0.000000, 4197.948730, 4195.384277, 4190.769043, 4193.846191, 4181.025391, 4188.717773, 4193.333008, 4170.769043, 4190.256348, 4179.487305, 4180.512695, 4186.666504, 4180.000000, 4186.666504, 3424.000000, 8222.000000, 8150.000000, 0.000000, 0.000000, 0.000000, 0.000000, 47.179493, 1545658602.801179, 4.000000, 4.000000, 4.000000, 4.000000, 4.000000, 4.000000, 4.000000, 4.000000, 4.000000, 4.000000, 4.000000, 4.000000, 4.000000, 4.000000, 4.000000, 4.000000
71.000000, 0.000000, 4200.000000, 4199.487305, 4189.230469, 4191.794922, 4180.512695, 4185.127930, 4183.076660, 4169.743652, 4194.871582, 4180.512695, 4183.589844, 4184.615234, 4184.615234, 4186.153809, 3255.000000, 8215.000000, 8150.000000, 0.000000, 0.000000, 0.000000, 0.000000, 54.871799, 1545658602.808872, 4.000000, 4.000000, 4.000000, 4.000000, 4.000000, 4.000000, 4.000000, 4.000000, 4.000000, 4.000000, 4.000000, 4.000000, 4.000000, 4.000000, 4.000000, 4.000000
72.000000, 0.000000, 4204.615234, 4192.307617, 4186.666504, 4186.666504, 4170.256348, 4180.000000, 4177.436035, 4174.871582, 4189.743652, 4176.922852, 4181.025391, 4186.153809, 4175.384277, 4187.692383, 3405.000000, 8215.000000, 8150.000000, 0.000000, 0.000000, 0.000000, 0.000000, 63.076927, 1545658602.817077, 4.000000, 4.000000, 4.000000, 4.000000, 4.000000, 4.000000, 4.000000, 4.000000, 4.000000, 4.000000, 4.000000, 4.000000, 4.000000, 4.000000, 4.000000, 4.000000
73.000000, 0.000000, 4199.487305, 4187.179199, 4187.692383, 4185.127930, 4171.281738, 4191.281738, 4197.436035, 4184.615234, 4191.281738, 4180.512695, 4182.563965, 4188.717773, 4169.230469, 4188.717773, 3189.000000, 8211.000000, 8116.000000, 0.000000, 0.000000, 0.000000, 0.000000, 70.769238, 1545658602.824769, 4.000000, 4.000000, 4.000000, 4.000000, 4.000000, 4.000000, 4.000000, 4.000000, 4.000000, 4.000000, 4.000000, 4.000000, 4.000000, 4.000000, 4.000000, 4.000000
74.000000, 0.000000, 4183.076660, 4175.384277, 4182.563965, 4176.410156, 4170.256348, 4193.846191, 4209.743652, 4193.333008, 4196.922852, 4184.102539, 4178.461426, 4178.461426, 4166.153809, 4178.974121, 3544.000000, 8211.000000, 8116.000000, 0.000000, 0.000000, 0.000000, 0.000000, 78.461544, 1545658602.832461, 4.000000, 4.000000, 4.000000, 4.000000, 4.000000, 4.000000, 4.000000, 4.000000, 4.000000, 4.000000, 4.000000, 4.000000, 4.000000, 4.000000, 4.000000, 4.000000
75.000000, 0.000000, 4177.436035, 4165.127930, 4176.410156, 4166.666504, 4158.461426, 4179.487305, 4192.307617, 4180.512695, 4185.641113, 4174.358887, 4170.256348, 4173.333008, 4156.922852, 4174.358887, 3244.000000, 8212.000000, 8104.000000, 0.000000, 0.000000, 0.000000, 0.000000, 86.153854, 1545658602.840154, 4.000000, 4.000000, 4.000000, 4.000000, 4.000000, 4.000000, 4.000000, 4.000000, 4.000000, 4.000000, 4.000000, 4.000000, 4.000000, 4.000000, 4.000000, 4.000000
76.000000, 0.000000, 4185.127930, 4169.743652, 4181.025391, 4173.846191, 4159.487305, 4174.871582, 4178.461426, 4158.974121, 4166.666504, 4163.076660, 4168.717773, 4179.487305, 4147.179199, 4180.512695, 3513.000000, 8212.000000, 8104.000000, 0.000000, 0.000000, 0.000000, 0.000000, 94.358978, 1545658602.848359, 4.000000, 4.000000, 4.000000, 4.000000, 4.000000, 4.000000, 4.000000, 4.000000, 4.000000, 4.000000, 4.000000, 4.000000, 4.000000, 4.000000, 4.000000, 4.000000
77.000000, 0.000000, 4187.692383, 4176.410156, 4187.179199, 4183.076660, 4171.794922, 4187.692383, 4195.897461, 4182.051270, 4176.410156, 4167.692383, 4173.333008, 4178.974121, 4147.179199, 4181.025391, 3150.000000, 8210.000000, 8078.000000, 0.000000, 0.000000, 0.000000, 0.000000, 102.051285, 1545658602.856051, 4.000000, 4.000000, 4.000000, 4.000000, 4.000000, 4.000000, 4.000000, 4.000000, 4.000000, 4.000000, 4.000000, 4.000000, 4.000000, 4.000000, 4.000000, 4.000000
78.000000, 0.000000, 4185.127930, 4181.538574, 4183.076660, 4181.538574, 4174.358887, 4193.846191, 4203.076660, 4203.589844, 4193.846191, 4174.871582, 4176.922852, 4174.871582, 4151.794922, 4178.461426, 3544.000000, 8210.000000, 8078.000000, 0.000000, 0.000000, 0.000000, 0.000000, 110.256416, 1545658602.864256, 4.000000, 4.000000, 4.000000, 4.000000, 4.000000, 4.000000, 4.000000, 4.000000, 4.000000, 4.000000, 4.000000, 4.000000, 4.000000, 4.000000, 4.000000, 4.000000
79.000000, 0.000000, 4188.205078, 4195.384277, 4181.025391, 4186.153809, 4174.871582, 4183.589844, 4178.974121, 4169.743652, 4182.563965, 4173.333008, 4176.922852, 4178.974121, 4155.384277, 4181.538574, 3244.000000, 8212.000000, 8065.000000, 0.000000, 0.000000, 0.000000, 0.000000, 117.948723, 1545658602.871949, 4.000000, 4.000000, 4.000000, 4.000000, 4.000000, 4.000000, 4.000000, 4.000000, 4.000000, 4.000000, 4.000000, 4.000000, 4.000000, 4.000000, 4.000000, 4.000000
80.000000, 0.000000, 4197.948730, 4207.179199, 4194.871582, 4200.000000, 4183.589844, 4183.589844, 4167.179199, 4152.820313, 4176.922852, 4178.974121, 4185.641113, 4191.794922, 4162.563965, 4194.358887, 3513.000000, 8212.000000, 8065.000000, 0.000000, 0.000000, 0.000000, 0.000000, 126.153847, 1545658602.880154, 4.000000, 4.000000, 4.000000, 4.000000, 4.000000, 4.000000, 4.000000, 4.000000, 4.000000, 4.000000, 4.000000, 4.000000, 4.000000, 4.000000, 4.000000, 4.000000
81.000000, 0.000000, 4201.538574, 4204.102539, 4202.051270, 4202.051270, 4188.205078, 4195.897461, 4181.025391, 4182.563965, 4196.922852, 4190.256348, 4195.897461, 4197.948730, 4170.256348, 4202.563965, 3150.000000, 8209.000000, 8056.000000, 0.000000, 0.000000, 0.000000, 0.000000, 133.846161, 1545658602.887846, 4.000000, 4.000000, 4.000000, 4.000000, 4.000000, 4.000000, 4.000000, 4.000000, 4.000000, 4.000000, 4.000000, 4.000000, 4.000000, 4.000000, 4.000000, 4.000000
82.000000, 0.000000, 4189.743652, 4191.281738, 4189.743652, 4188.717773, 4174.871582, 4192.307617, 4187.179199, 4186.666504, 4201.025391, 4187.179199, 4187.179199, 4186.666504, 4162.563965, 4191.794922, 3544.000000, 8209.000000, 8056.000000, 0.000000, 0.000000, 0.000000, 0.000000, 142.051285, 1545658602.896051, 4.000000, 4.000000, 4.000000, 4.000000, 4.000000, 4.000000, 4.000000, 4.000000, 4.000000, 4.000000, 4.000000, 4.000000, 4.000000, 4.000000, 4.000000, 4.000000
83.000000, 0.000000, 4188.205078, 4194.871582, 4189.230469, 4189.743652, 4170.769043, 4185.127930, 4186.153809, 4178.461426, 4194.358887, 4184.102539, 4184.102539, 4186.666504, 4161.538574, 4190.769043, 3244.000000, 8203.000000, 8050.000000, 0.000000, 0.000000, 0.000000, 0.000000, 149.743591, 1545658602.903744, 4.000000, 4.000000, 4.000000, 4.000000, 4.000000, 4.000000, 4.000000, 4.000000, 4.000000, 4.000000, 4.000000, 4.000000, 4.000000, 4.000000, 4.000000, 4.000000
84.000000, 0.000000, 4208.717773, 4212.307617, 4210.256348, 4211.281738, 4194.358887, 4204.615234, 4205.641113, 4209.230469, 4212.307617, 4199.487305, 4205.127930, 4209.743652, 4181.025391, 4210.769043, 3513.000000, 8203.000000, 8050.000000, 0.000000, 0.000000, 0.000000, 0.000000, 157.435898, 1545658602.911436, 4.000000, 4.000000, 4.000000, 4.000000, 4.000000, 4.000000, 4.000000, 4.000000, 4.000000, 4.000000, 4.000000, 4.000000, 4.000000, 4.000000, 4.000000, 4.000000
85.000000, 0.000000, 4214.358887, 4214.358887, 4218.974121, 4221.538574, 4207.179199, 4222.563965, 4221.538574, 4223.589844, 4221.538574, 4205.641113, 4213.846191, 4216.922852, 4187.692383, 4217.436035, 3150.000000, 8187.000000, 8057.000000, 0.000000, 0.000000, 0.000000, 0.000000, 165.641022, 1545658602.919641, 4.000000, 4.000000, 4.000000, 4.000000, 4.000000, 4.000000, 4.000000, 4.000000, 4.000000, 4.000000, 4.000000, 4.000000, 4.000000, 4.000000, 4.000000, 4.000000
86.000000, 0.000000, 4200.000000, 4204.615234, 4208.717773, 4207.179199, 4195.897461, 4212.820313, 4214.871582, 4202.563965, 4204.102539, 4192.307617, 4198.974121, 4203.589844, 4173.333008, 4203.076660, 3544.000000, 8187.000000, 8057.000000, 0.000000, 0.000000, 0.000000, 0.000000, 173.333328, 1545658602.927333, 4.000000, 4.000000, 4.000000, 4.000000, 4.000000, 4.000000, 4.000000, 4.000000, 4.000000, 4.000000, 4.000000, 4.000000, 4.000000, 4.000000, 4.000000, 4.000000
87.000000, 0.000000, 4202.051270, 4207.692383, 4207.692383, 4201.538574, 4197.948730, 4206.666504, 4214.871582, 4199.487305, 4202.051270, 4194.871582, 4202.563965, 4205.641113, 4173.846191, 4203.076660, 3244.000000, 8180.000000, 8062.000000, 0.000000, 0.000000, 0.000000, 0.000000, 181.538467, 1545658602.935539, 4.000000, 4.000000, 4.000000, 4.000000, 4.000000, 4.000000, 4.000000, 4.000000, 4.000000, 4.000000, 4.000000, 4.000000, 4.000000, 4.000000, 4.000000, 4.000000
88.000000, 0.000000, 4205.641113, 4206.153809, 4206.153809, 4202.563965, 4205.641113, 4215.384277, 4221.538574, 4210.256348, 4211.281738, 4200.000000, 4210.256348, 4208.205078, 4175.897461, 4206.153809, 3513.000000, 8180.000000, 8062.000000, 0.000000, 0.000000, 0.000000, 0.000000, 189.230774, 1545658602.943231, 4.000000, 4.000000, 4.000000, 4.000000, 4.000000, 4.000000, 4.000000, 4.000000, 4.000000, 4.000000, 4.000000, 4.000000, 4.000000, 4.000000, 4.000000, 4.000000
89.000000, 0.000000, 4190.256348, 4192.307617, 4194.871582, 4193.846191, 4194.871582, 4215.897461, 4213.846191, 4193.333008, 4195.384277, 4183.589844, 4190.769043, 4197.948730, 4157.436035, 4195.384277, 3150.000000, 8170.000000, 8072.000000, 0.000000, 0.000000, 0.000000, 0.000000, 196.923080, 1545658602.950923, 4.000000, 4.000000, 4.000000, 4.000000, 4.000000, 4.000000, 4.000000, 4.000000, 4.000000, 4.000000, 4.000000, 4.000000, 4.000000, 4.000000, 4.000000, 4.000000
90.000000, 0.000000, 4187.179199, 4193.846191, 4195.897461, 4196.410156, 4191.281738, 4207.692383, 4199.487305, 4170.256348, 4184.102539, 4177.436035, 4182.563965, 4197.948730, 4148.717773, 4194.358887, 3544.000000, 8170.000000, 8072.000000, 0.000000, 0.000000, 0.000000, 0.000000, 205.128204, 1545658602.959128, 4.000000, 4.000000, 4.000000, 4.000000, 4.000000, 4.000000, 4.000000, 4.000000, 4.000000, 4.000000, 4.000000, 4.000000, 4.000000, 4.000000, 4.000000, 4.000000
91.000000, 0.000000, 4195.384277, 4200.000000, 4198.974121, 4202.051270, 4193.333008, 4204.615234, 4203.076660, 4192.307617, 4205.641113, 4194.358887, 4194.358887, 4204.615234, 4154.871582, 4201.025391, 3244.000000, 8168.000000, 8070.000000, 0.000000, 0.000000, 0.000000, 0.000000, 212.820511, 1545658602.966820, 4.000000, 4.000000, 4.000000, 4.000000, 4.000000, 4.000000, 4.000000, 4.000000, 4.000000, 4.000000, 4.000000, 4.000000, 4.000000, 4.000000, 4.000000, 4.000000
92.000000, 0.000000, 4190.769043, 4197.948730, 4193.333008, 4194.358887, 4191.794922, 4207.179199, 4212.307617, 4209.743652, 4216.922852, 4200.512695, 4192.307617, 4201.538574, 4153.333008, 4198.461426, 3513.000000, 8168.000000, 8070.000000, 0.000000, 0.000000, 0.000000, 0.000000, 221.025635, 1545658602.975026, 4.000000, 4.000000, 4.000000, 4.000000, 4.000000, 4.000000, 4.000000, 4.000000, 4.000000, 4.000000, 4.000000, 4.000000, 4.000000, 4.000000, 4.000000, 4.000000
93.000000, 0.000000, 4175.897461, 4190.769043, 4184.615234, 4185.641113, 4190.256348, 4204.615234, 4202.563965, 4178.461426, 4192.307617, 4185.127930, 4173.333008, 4190.769043, 4143.589844, 4186.666504, 3150.000000, 8166.000000, 8053.000000, 0.000000, 0.000000, 0.000000, 0.000000, 228.717957, 1545658602.982718, 4.000000, 4.000000, 4.000000, 4.000000, 4.000000, 4.000000, 4.000000, 4.000000, 4.000000, 4.000000, 4.000000, 4.000000, 4.000000, 4.000000, 4.000000, 4.000000
94.000000, 0.000000, 4167.179199, 4181.538574, 4175.384277, 4182.051270, 4186.666504, 4194.871582, 4195.384277, 4167.692383, 4178.974121, 4177.436035, 4164.615234, 4181.025391, 4134.871582, 4175.384277, 3544.000000, 8166.000000, 8053.000000, 0.000000, 0.000000, 0.000000, 0.000000, 236.923080, 1545658602.990923, 4.000000, 4.000000, 4.000000, 4.000000, 4.000000, 4.000000, 4.000000, 4.000000, 4.000000, 4.000000, 4.000000, 4.000000, 4.000000, 4.000000, 4.000000, 4.000000
95.000000, 0.000000, 4174.871582, 4185.127930, 4174.871582, 4183.589844, 4186.153809, 4191.794922, 4202.563965, 4194.871582, 4197.948730, 4186.666504, 4172.820313, 4185.127930, 4137.948730, 4178.974121, 3244.000000, 8172.000000, 8045.000000, 0.000000, 0.000000, 0.000000, 0.000000, 244.615387, 1545658602.998616, 4.000000, 4.000000, 4.000000, 4.000000, 4.000000, 4.000000, 4.000000, 4.000000, 4.000000, 4.000000, 4.000000, 4.000000, 4.000000, 4.000000, 4.000000, 4.000000
96.000000, 1.000000, 4171.794922, 4182.051270, 4173.333008, 4180.000000, 4183.076660, 4189.230469, 4197.436035, 4190.256348, 4193.846191, 4183.589844, 4170.256348, 4184.615234, 4134.358887, 4177.436035, 3229.000000, 8172.000000, 8045.000000, 0.000000, 0.000000, 0.000000, 0.000000, 252.820511, 1545658603.006820, 4.000000, 4.000000, 4.000000, 4.000000, 4.000000, 4.000000, 4.000000, 4.000000, 4.000000, 4.000000, 4.000000, 4.000000, 4.000000, 4.000000, 4.000000, 4.000000
97.000000, 1.000000, 4168.717773, 4179.487305, 4171.794922, 4176.922852, 4180.000000, 4187.179199, 4192.820313, 4185.127930, 4190.256348, 4180.512695, 4167.179199, 4184.102539, 4131.281738, 4175.897461, 3214.000000, 8172.000000, 8045.000000, 0.000000, 0.000000, 0.000000, 0.000000, 260.512817, 1545658603.014513, 4.000000, 4.000000, 4.000000, 4.000000, 4.000000, 4.000000, 4.000000, 4.000000, 4.000000, 4.000000, 4.000000, 4.000000, 4.000000, 4.000000, 4.000000, 4.000000
98.000000, 1.000000, 4165.641113, 4176.922852, 4170.256348, 4173.846191, 4176.922852, 4184.615234, 4188.205078, 4180.000000, 4186.153809, 4177.436035, 4164.615234, 4183.589844, 4128.205078, 4174.358887, 3199.000000, 8172.000000, 8045.000000, 0.000000, 0.000000, 0.000000, 0.000000, 268.205124, 1545658603.022205, 4.000000, 4.000000, 4.000000, 4.000000, 4.000000, 4.000000, 4.000000, 4.000000, 4.000000, 4.000000, 4.000000, 4.000000, 4.000000, 4.000000, 4.000000, 4.000000
99.000000, 1.000000, 4163.076660, 4174.358887, 4168.205078, 4170.769043, 4173.333008, 4182.563965, 4183.589844, 4174.871582, 4182.563965, 4174.358887, 4161.538574, 4183.076660, 4125.127930, 4172.820313, 3184.000000, 8172.000000, 8045.000000, 0.000000, 0.000000, 0.000000, 0.000000, 275.897430, 1545658603.029897, 4.000000, 4.000000, 4.000000, 4.000000, 4.000000, 4.000000, 4.000000, 4.000000, 4.000000, 4.000000, 4.000000, 4.000000, 4.000000, 4.000000, 4.000000, 4.000000
100.000000, 1.000000, 4160.000000, 4171.281738, 4166.666504, 4167.179199, 4170.256348, 4180.000000, 4178.461426, 4170.256348, 4178.461426, 4171.281738, 4158.974121, 4182.563965, 4121.538574, 4171.281738, 3169.000000, 8172.000000, 8045.000000, 0.000000, 0.000000, 0.000000, 0.000000, 283.589752, 1545658603.037590, 4.000000, 4.000000, 4.000000, 4.000000, 4.000000, 4.000000, 4.000000, 4.000000, 4.000000, 4.000000, 4.000000, 4.000000, 4.000000, 4.000000, 4.000000, 4.000000
101.000000, 0.000000, 4156.922852, 4168.205078, 4164.615234, 4164.102539, 4166.666504, 4176.922852, 4173.846191, 4164.615234, 4173.846191, 4167.692383, 4155.897461, 4181.538574, 4117.948730, 4169.743652, 3150.000000, 8172.000000, 8045.000000, 0.000000, 0.000000, 0.000000, 0.000000, 291.282043, 1545658603.045282, 4.000000, 4.000000, 4.000000, 4.000000, 4.000000, 4.000000, 4.000000, 4.000000, 4.000000, 4.000000, 4.000000, 4.000000, 4.000000, 4.000000, 4.000000, 4.000000
102.000000, 0.000000, 4157.436035, 4166.153809, 4164.102539, 4163.589844, 4165.127930, 4179.487305, 4183.589844, 4177.948730, 4178.461426, 4169.230469, 4158.974121, 4178.461426, 4113.333008, 4168.717773, 3544.000000, 8172.000000, 8045.000000, 0.000000, 0.000000, 0.000000, 0.000000, 298.974365, 1545658603.052974, 4.000000, 4.000000, 4.000000, 4.000000, 4.000000, 4.000000, 4.000000, 4.000000, 4.000000, 4.000000, 4.000000, 4.000000, 4.000000, 4.000000, 4.000000, 4.000000
103.000000, 0.000000, 4166.666504, 4178.461426, 4176.410156, 4181.538574, 4183.589844, 4197.948730, 4202.563965, 4183.076660, 4190.256348, 4184.102539, 4166.666504, 4190.769043, 4130.769043, 4182.051270, 3244.000000, 8175.000000, 8025.000000, 0.000000, 0.000000, 0.000000, 0.000000, 306.666656, 1545658603.060667, 4.000000, 4.000000, 4.000000, 4.000000, 4.000000, 4.000000, 4.000000, 4.000000, 4.000000, 4.000000, 4.000000, 4.000000, 4.000000, 4.000000, 4.000000, 4.000000
104.000000, 0.000000, 4169.743652, 4183.589844, 4177.436035, 4182.563965, 4184.615234, 4198.461426, 4202.051270, 4178.974121, 4190.769043, 4187.179199, 4166.153809, 4193.846191, 4142.051270, 4186.153809, 3513.000000, 8175.000000, 8025.000000, 0.000000, 0.000000, 0.000000, 0.000000, 314.358978, 1545658603.068359, 4.000000, 4.000000, 4.000000, 4.000000, 4.000000, 4.000000, 4.000000, 4.000000, 4.000000, 4.000000, 4.000000, 4.000000, 4.000000, 4.000000, 4.000000, 4.000000
105.000000, 0.000000, 4170.256348, 4184.615234, 4173.846191, 4173.846191, 4172.820313, 4190.769043, 4200.000000, 4183.076660, 4188.717773, 4185.127930, 4171.281738, 4193.333008, 4151.794922, 4185.641113, 3150.000000, 8173.000000, 8013.000000, 0.000000, 0.000000, 0.000000, 0.000000, 322.051270, 1545658603.076051, 4.000000, 4.000000, 4.000000, 4.000000, 4.000000, 4.000000, 4.000000, 4.000000, 4.000000, 4.000000, 4.000000, 4.000000, 4.000000, 4.000000, 4.000000, 4.000000
106.000000, 0.000000, 4171.281738, 4185.641113, 4177.948730, 4177.948730, 4176.922852, 4193.846191, 4209.230469, 4183.589844, 4185.641113, 4187.179199, 4179.487305, 4196.922852, 4172.307617, 4187.179199, 3544.000000, 8173.000000, 8013.000000, 0.000000, 0.000000, 0.000000, 0.000000, 329.743591, 1545658603.083744, 4.000000, 4.000000, 4.000000, 4.000000, 4.000000, 4.000000, 4.000000, 4.000000, 4.000000, 4.000000, 4.000000, 4.000000, 4.000000, 4.000000, 4.000000, 4.000000
107.000000, 0.000000, 4167.179199, 4178.461426, 4178.974121, 4183.076660, 4181.025391, 4194.358887, 4205.641113, 4176.922852, 4182.051270, 4184.102539, 4172.820313, 4192.820313, 4193.846191, 4183.076660, 3244.000000, 8173.000000, 8014.000000, 0.000000, 0.000000, 0.000000, 0.000000, 337.948730, 1545658603.091949, 4.000000, 4.000000, 4.000000, 4.000000, 4.000000, 4.000000, 4.000000, 4.000000, 4.000000, 4.000000, 4.000000, 4.000000, 4.000000, 4.000000, 4.000000, 4.000000
108.000000, 0.000000, 4165.127930, 4174.358887, 4176.410156, 4181.538574, 4175.384277, 4185.641113, 4193.846191, 4182.563965, 4185.641113, 4182.563965, 4165.641113, 4192.307617, 4218.974121, 4177.436035, 3513.000000, 8173.000000, 8014.000000, 0.000000, 0.000000, 0.000000, 0.000000, 345.641022, 1545658603.099641, 4.000000, 4.000000, 4.000000, 4.000000, 4.000000, 4.000000, 4.000000, 4.000000, 4.000000, 4.000000, 4.000000, 4.000000, 4.000000, 4.000000, 4.000000, 4.000000
109.000000, 0.000000, 4168.205078, 4181.538574, 4177.436035, 4180.512695, 4172.820313, 4181.025391, 4191.281738, 4186.666504, 4186.666504, 4187.179199, 4168.717773, 4197.436035, 4243.076660, 4176.410156, 3150.000000, 8145.000000, 8004.000000, 0.000000, 0.000000, 0.000000, 0.000000, 353.333344, 1545658603.107333, 4.000000, 4.000000, 4.000000, 4.000000, 4.000000, 4.000000, 4.000000, 4.000000, 4.000000, 4.000000, 4.000000, 4.000000, 4.000000, 4.000000, 4.000000, 4.000000
110.000000, 0.000000, 4169.743652, 4189.230469, 4178.974121, 4184.102539, 4177.948730, 4187.179199, 4192.820313, 4178.974121, 4183.076660, 4187.179199, 4170.256348, 4196.410156, 4257.436035, 4176.410156, 3544.000000, 8145.000000, 8004.000000, 0.000000, 0.000000, 0.000000, 0.000000, 361.025635, 1545658603.115026, 4.000000, 4.000000, 4.000000, 4.000000, 4.000000, 4.000000, 4.000000, 4.000000, 4.000000, 4.000000, 4.000000, 4.000000, 4.000000, 4.000000, 4.000000, 4.000000
111.000000, 0.000000, 4161.538574, 4186.666504, 4170.769043, 4181.538574, 4180.000000, 4186.153809, 4185.127930, 4168.205078, 4177.436035, 4177.948730, 4162.051270, 4188.717773, 4259.487305, 4165.127930, 3244.000000, 8128.000000, 8002.000000, 0.000000, 0.000000, 0.000000, 0.000000, 368.717957, 1545658603.122718, 4.000000, 4.000000, 4.000000, 4.000000, 4.000000, 4.000000, 4.000000, 4.000000, 4.000000, 4.000000, 4.000000, 4.000000, 4.000000, 4.000000, 4.000000, 4.000000
112.000000, 0.000000, 4147.692383, 4177.436035, 4161.538574, 4171.794922, 4175.384277, 4185.127930, 4180.512695, 4163.589844, 4166.153809, 4166.153809, 4151.281738, 4181.025391, 4254.871582, 4147.692383, 3513.000000, 8128.000000, 8002.000000, 0.000000, 0.000000, 0.000000, 0.000000, 376.410248, 1545658603.130410, 4.000000, 4.000000, 4.000000, 4.000000, 4.000000, 4.000000, 4.000000, 4.000000, 4.000000, 4.000000, 4.000000, 4.000000, 4.000000, 4.000000, 4.000000, 4.000000
113.000000, 0.000000, 4144.615234, 4170.769043, 4163.589844, 4169.230469, 4170.256348, 4186.153809, 4183.589844, 4158.461426, 4156.410156, 4158.974121, 4143.589844, 4177.436035, 4248.717773, 4137.948730, 3150.000000, 8112.000000, 7981.000000, 0.000000, 0.000000, 0.000000, 0.000000, 384.102570, 1545658603.138103, 4.000000, 4.000000, 4.000000, 4.000000, 4.000000, 4.000000, 4.000000, 4.000000, 4.000000, 4.000000, 4.000000, 4.000000, 4.000000, 4.000000, 4.000000, 4.000000
114.000000, 0.000000, 4149.230469, 4171.794922, 4166.153809, 4175.897461, 4169.743652, 4183.589844, 4185.641113, 4160.000000, 4160.512695, 4161.025391, 4146.153809, 4178.461426, 4247.692383, 4137.948730, 3544.000000, 8112.000000, 7981.000000, 0.000000, 0.000000, 0.000000, 0.000000, 391.794861, 1545658603.145795, 4.000000, 4.000000, 4.000000, 4.000000, 4.000000, 4.000000, 4.000000, 4.000000, 4.000000, 4.000000, 4.000000, 4.000000, 4.000000, 4.000000, 4.000000, 4.000000
115.000000, 0.000000, 4144.615234, 4174.871582, 4161.025391, 4178.461426, 4171.794922, 4185.127930, 4186.666504, 4169.743652, 4168.717773, 4168.205078, 4155.897461, 4178.974121, 4250.256348, 4138.974121, 3244.000000, 8111.000000, 7966.000000, 0.000000, 0.000000, 0.000000, 0.000000, 399.487183, 1545658603.153487, 4.000000, 4.000000, 4.000000, 4.000000, 4.000000, 4.000000, 4.000000, 4.000000, 4.000000, 4.000000, 4.000000, 4.000000, 4.000000, 4.000000, 4.000000, 4.000000
116.000000, 0.000000, 4140.000000, 4175.384277, 4156.410156, 4174.871582, 4170.769043, 4184.102539, 4187.179199, 4172.820313, 4169.743652, 4171.794922, 4153.333008, 4174.358887, 4248.717773, 4133.846191, 3513.000000, 8111.000000, 7966.000000, 0.000000, 0.000000, 0.000000, 0.000000, 407.179474, 1545658603.161180, 4.000000, 4.000000, 4.000000, 4.000000, 4.000000, 4.000000, 4.000000, 4.000000, 4.000000, 4.000000, 4.000000, 4.000000, 4.000000, 4.000000, 4.000000, 4.000000
117.000000, 0.000000, 4147.692383, 4184.615234, 4163.076660, 4183.076660, 4177.436035, 4182.563965, 4190.769043, 4174.358887, 4176.410156, 4179.487305, 4152.820313, 4181.025391, 4252.307617, 4135.897461, 3150.000000, 8120.000000, 7965.000000, 0.000000, 0.000000, 0.000000, 0.000000, 414.871796, 1545658603.168872, 4.000000, 4.000000, 4.000000, 4.000000, 4.000000, 4.000000, 4.000000, 4.000000, 4.000000, 4.000000, 4.000000, 4.000000, 4.000000, 4.000000, 4.000000, 4.000000
118.000000, 0.000000, 4151.794922, 4190.256348, 4166.666504, 4189.230469, 4186.666504, 4190.256348, 4201.025391, 4183.589844, 4190.769043, 4188.717773, 4160.000000, 4187.179199, 4254.358887, 4140.512695, 3544.000000, 8120.000000, 7965.000000, 0.000000, 0.000000, 0.000000, 0.000000, 422.564087, 1545658603.176564, 4.000000, 4.000000, 4.000000, 4.000000, 4.000000, 4.000000, 4.000000, 4.000000, 4.000000, 4.000000, 4.000000, 4.000000, 4.000000, 4.000000, 4.000000, 4.000000
119.000000, 0.000000, 4143.076660, 4184.615234, 4160.000000, 4184.615234, 4185.641113, 4202.051270, 4214.358887, 4193.846191, 4192.820313, 4187.692383, 4156.922852, 4180.000000, 4248.205078, 4132.820313, 3244.000000, 8133.000000, 7966.000000, 0.000000, 0.000000, 0.000000, 0.000000, 430.256409, 1545658603.184256, 4.000000, 4.000000, 4.000000, 4.000000, 4.000000, 4.000000, 4.000000, 4.000000, 4.000000, 4.000000, 4.000000, 4.000000, 4.000000, 4.000000, 4.000000, 4.000000
120.000000, 0.000000, 4141.538574, 4185.127930, 4161.538574, 4183.589844, 4183.076660, 4200.000000, 4209.230469, 4193.333008, 4190.256348, 4185.641113, 4153.333008, 4180.000000, 4248.205078, 4126.666504, 3513.000000, 8133.000000, 7966.000000, 0.000000, 0.000000, 0.000000, 0.000000, 437.948700, 1545658603.191949, 4.000000, 4.000000, 4.000000, 4.000000, 4.000000, 4.000000, 4.000000, 4.000000, 4.000000, 4.000000, 4.000000, 4.000000, 4.000000, 4.000000, 4.000000, 4.000000
121.000000, 0.000000, 4146.666504, 4187.179199, 4167.692383, 4184.102539, 4181.538574, 4187.179199, 4189.743652, 4182.563965, 4189.230469, 4185.127930, 4161.025391, 4185.641113, 4249.230469, 4133.333008, 3150.000000, 8178.000000, 7985.000000, 0.000000, 0.000000, 0.000000, 0.000000, 445.641022, 1545658603.199641, 4.000000, 4.000000, 4.000000, 4.000000, 4.000000, 4.000000, 4.000000, 4.000000, 4.000000, 4.000000, 4.000000, 4.000000, 4.000000, 4.000000, 4.000000, 4.000000
122.000000, 0.000000, 4153.333008, 4183.589844, 4171.794922, 4185.641113, 4178.461426, 4185.641113, 4184.615234, 4180.000000, 4186.153809, 4182.563965, 4164.102539, 4188.717773, 4244.102539, 4138.461426, 3544.000000, 8178.000000, 7985.000000, 0.000000, 0.000000, 0.000000, 0.000000, 453.846161, 1545658603.207846, 4.000000, 4.000000, 4.000000, 4.000000, 4.000000, 4.000000, 4.000000, 4.000000, 4.000000, 4.000000, 4.000000, 4.000000, 4.000000, 4.000000, 4.000000, 4.000000
123.000000, 0.000000, 4161.025391, 4189.743652, 4181.025391, 4191.281738, 4180.000000, 4191.281738, 4192.307617, 4191.281738, 4192.820313, 4187.179199, 4166.666504, 4195.897461, 4242.563965, 4140.000000, 3244.000000, 8198.000000, 7979.000000, 0.000000, 0.000000, 0.000000, 0.000000, 461.538452, 1545658603.215539, 4.000000, 4.000000, 4.000000, 4.000000, 4.000000, 4.000000, 4.000000, 4.000000, 4.000000, 4.000000, 4.000000, 4.000000, 4.000000, 4.000000, 4.000000, 4.000000
124.000000, 0.000000, 4157.436035, 4191.794922, 4183.076660, 4187.692383, 4175.384277, 4185.641113, 4184.615234, 4189.743652, 4193.333008, 4185.641113, 4165.127930, 4200.000000, 4235.384277, 4139.487305, 3513.000000, 8198.000000, 7979.000000, 0.000000, 0.000000, 0.000000, 0.000000, 469.230774, 1545658603.223231, 4.000000, 4.000000, 4.000000, 4.000000, 4.000000, 4.000000, 4.000000, 4.000000, 4.000000, 4.000000, 4.000000, 4.000000, 4.000000, 4.000000, 4.000000, 4.000000
125.000000, 0.000000, 4152.820313, 4180.512695, 4176.410156, 4182.051270, 4164.615234, 4179.487305, 4175.897461, 4180.512695, 4181.025391, 4175.897461, 4155.384277, 4198.461426, 4222.051270, 4138.461426, 3150.000000, 8217.000000, 7928.000000, 0.000000, 0.000000, 0.000000, 0.000000, 476.923065, 1545658603.230923, 4.000000, 4.000000, 4.000000, 4.000000, 4.000000, 4.000000, 4.000000, 4.000000, 4.000000, 4.000000, 4.000000, 4.000000, 4.000000, 4.000000, 4.000000, 4.000000
126.000000, 0.000000, 4160.512695, 4181.538574, 4180.512695, 4188.717773, 4168.205078, 4185.127930, 4184.615234, 4180.512695, 4177.948730, 4177.948730, 4159.487305, 4200.512695, 4226.666504, 4143.076660, 3544.000000, 8217.000000, 7928.000000, 0.000000, 0.000000, 0.000000, 0.000000, 484.615387, 1545658603.238616, 4.000000, 4.000000, 4.000000, 4.000000, 4.000000, 4.000000, 4.000000, 4.000000, 4.000000, 4.000000, 4.000000, 4.000000, 4.000000, 4.000000, 4.000000, 4.000000
127.000000, 0.000000, 4164.615234, 4182.051270, 4186.153809, 4184.102539, 4176.410156, 4186.153809, 4187.179199, 4175.897461, 4179.487305, 4184.102539, 4169.230469, 4201.538574, 4229.743652, 4143.589844, 56.000000, 8213.000000, 7893.000000, 0.000000, 0.000000, 0.000000, 0.000000, 492.307678, 1545658603.246308, 4.000000, 4.000000, 4.000000, 4.000000, 4.000000, 4.000000, 4.000000, 4.000000, 4.000000, 4.000000, 4.000000, 4.000000, 4.000000, 4.000000, 4.000000, 4.000000
0.000000, 0.000000, 4153.333008, 4171.281738, 4177.948730, 4169.743652, 4175.897461, 4185.641113, 4183.589844, 4177.948730, 4180.512695, 4183.589844, 4165.127930, 4195.384277, 4218.461426, 4138.974121, 3332.000000, 8213.000000, 7893.000000, 0.000000, 0.000000, 0.000000, 0.000000, 500.000000, 1545658603.254000, 4.000000, 4.000000, 4.000000, 4.000000, 4.000000, 4.000000, 4.000000, 4.000000, 4.000000, 4.000000, 4.000000, 4.000000, 4.000000, 4.000000, 4.000000, 4.000000
1.000000, 0.000000, 4153.846191, 4176.410156, 4179.487305, 4176.922852, 4180.000000, 4196.922852, 4192.307617, 4192.307617, 4190.769043, 4188.717773, 4166.666504, 4197.948730, 4218.974121, 4143.589844, 3535.000000, 8205.000000, 7847.000000, 0.000000, 0.000000, 0.000000, 0.000000, 507.692291, 1545658603.261692, 4.000000, 4.000000, 4.000000, 4.000000, 4.000000, 4.000000, 4.000000, 4.000000, 4.000000, 4.000000, 4.000000, 4.000000, 4.000000, 4.000000, 4.000000, 4.000000
2.000000, 0.000000, 4161.538574, 4185.641113, 4186.153809, 4185.641113, 4187.692383, 4200.512695, 4197.948730, 4192.820313, 4197.436035, 4193.846191, 4174.871582, 4201.025391, 4221.538574, 4148.205078, 3314.000000, 8205.000000, 7847.000000, 0.000000, 0.000000, 0.000000, 0.000000, 515.384613, 1545658603.269385, 4.000000, 4.000000, 4.000000, 4.000000, 4.000000, 4.000000, 4.000000, 4.000000, 4.000000, 4.000000, 4.000000, 4.000000, 4.000000, 4.000000, 4.000000, 4.000000
3.000000, 0.000000, 4144.615234, 4172.307617, 4172.820313, 4172.307617, 4177.436035, 4188.717773, 4186.153809, 4182.563965, 4187.179199, 4185.127930, 4162.563965, 4187.692383, 4203.589844, 4137.436035, 3578.000000, 8215.000000, 7856.000000, 0.000000, 0.000000, 0.000000, 0.000000, 523.076904, 1545658603.277077, 4.000000, 4.000000, 4.000000, 4.000000, 4.000000, 4.000000, 4.000000, 4.000000, 4.000000, 4.000000, 4.000000, 4.000000, 4.000000, 4.000000, 4.000000, 4.000000
4.000000, 0.000000, 4135.384277, 4160.000000, 4161.025391, 4161.538574, 4163.589844, 4178.461426, 4177.948730, 4179.487305, 4180.000000, 4180.000000, 4150.769043, 4178.461426, 4190.769043, 4129.743652, 3400.000000, 8215.000000, 7856.000000, 0.000000, 0.000000, 0.000000, 0.000000, 530.769226, 1545658603.284769, 4.000000, 4.000000, 4.000000, 4.000000, 4.000000, 4.000000, 4.000000, 4.000000, 4.000000, 4.000000, 4.000000, 4.000000, 4.000000, 4.000000, 4.000000, 4.000000
5.000000, 0.000000, 4154.358887, 4171.281738, 4173.846191, 4173.333008, 4172.307617, 4180.512695, 4184.102539, 4182.051270, 4186.666504, 4189.743652, 4161.538574, 4193.333008, 4203.076660, 4141.025391, 3489.000000, 8235.000000, 7915.000000, 0.000000, 0.000000, 0.000000, 0.000000, 538.461548, 1545658603.292461, 4.000000, 4.000000, 4.000000, 4.000000, 4.000000, 4.000000, 4.000000, 4.000000, 4.000000, 4.000000, 4.000000, 4.000000, 4.000000, 4.000000, 4.000000, 4.000000
6.000000, 0.000000, 4158.461426, 4180.512695, 4182.563965, 4178.974121, 4178.974121, 4184.102539, 4187.179199, 4177.948730, 4187.692383, 4190.256348, 4163.589844, 4204.615234, 4205.641113, 4148.205078, 3286.000000, 8235.000000, 7915.000000, 0.000000, 0.000000, 0.000000, 0.000000, 546.153870, 1545658603.300154, 4.000000, 4.000000, 4.000000, 4.000000, 4.000000, 4.000000, 4.000000, 4.000000, 4.000000, 4.000000, 4.000000, 4.000000, 4.000000, 4.000000, 4.000000, 4.000000
7.000000, 0.000000, 4149.230469, 4178.461426, 4177.436035, 4172.307617, 4172.820313, 4185.127930, 4185.641113, 4170.769043, 4182.563965, 4181.025391, 4149.743652, 4196.410156, 4192.307617, 4143.076660, 3231.000000, 8243.000000, 7942.000000, 0.000000, 0.000000, 0.000000, 0.000000, 553.846130, 1545658603.307846, 4.000000, 4.000000, 4.000000, 4.000000, 4.000000, 4.000000, 4.000000, 4.000000, 4.000000, 4.000000, 4.000000, 4.000000, 4.000000, 4.000000, 4.000000, 4.000000
8.000000, 0.000000, 4152.307617, 4177.948730, 4177.948730, 4178.974121, 4173.846191, 4186.153809, 4193.846191, 4166.153809, 4180.000000, 4179.487305, 4147.179199, 4192.307617, 4187.692383, 4145.127930, 3316.000000, 8243.000000, 7942.000000, 0.000000, 0.000000, 0.000000, 0.000000, 561.538452, 1545658603.315539, 4.000000, 4.000000, 4.000000, 4.000000, 4.000000, 4.000000, 4.000000, 4.000000, 4.000000, 4.000000, 4.000000, 4.000000, 4.000000, 4.000000, 4.000000, 4.000000
9.000000, 0.000000, 4154.358887, 4178.461426, 4181.025391, 4183.589844, 4181.025391, 4187.179199, 4203.589844, 4169.230469, 4175.897461, 4181.025391, 4148.717773, 4193.333008, 4184.102539, 4148.717773, 3143.000000, 8267.000000, 7958.000000, 0.000000, 0.000000, 0.000000, 0.000000, 569.230774, 1545658603.323231, 4.000000, 4.000000, 4.000000, 4.000000, 4.000000, 4.000000, 4.000000, 4.000000, 4.000000, 4.000000, 4.000000, 4.000000, 4.000000, 4.000000, 4.000000, 4.000000
10.000000, 0.000000, 4152.820313, 4176.410156, 4181.025391, 4175.897461, 4176.410156, 4185.127930, 4191.281738, 4174.871582, 4172.820313, 4179.487305, 4142.051270, 4190.769043, 4177.948730, 4143.076660, 3554.000000, 8267.000000, 7958.000000, 0.000000, 0.000000, 0.000000, 0.000000, 577.435913, 1545658603.331436, 4.000000, 4.000000, 4.000000, 4.000000, 4.000000, 4.000000, 4.000000, 4.000000, 4.000000, 4.000000, 4.000000, 4.000000, 4.000000, 4.000000, 4.000000, 4.000000
11.000000, 0.000000, 4154.358887, 4176.922852, 4180.512695, 4173.333008, 4167.179199, 4178.974121, 4167.179199, 4173.333008, 4177.948730, 4180.512695, 4142.563965, 4191.281738, 4177.948730, 4142.051270, 3248.000000, 8275.000000, 7960.000000, 0.000000, 0.000000, 0.000000, 0.000000, 585.128174, 1545658603.339128, 4.000000, 4.000000, 4.000000, 4.000000, 4.000000, 4.000000, 4.000000, 4.000000, 4.000000, 4.000000, 4.000000, 4.000000, 4.000000, 4.000000, 4.000000, 4.000000
12.000000, 0.000000, 4154.871582, 4180.512695, 4184.615234, 4175.384277, 4168.717773, 4178.974121, 4164.615234, 4173.333008, 4181.538574, 4184.102539, 4149.230469, 4198.974121, 4181.538574, 4151.281738, 3523.000000, 8275.000000, 7960.000000, 0.000000, 0.000000, 0.000000, 0.000000, 592.820496, 1545658603.346821, 4.000000, 4.000000, 4.000000, 4.000000, 4.000000, 4.000000, 4.000000, 4.000000, 4.000000, 4.000000, 4.000000, 4.000000, 4.000000, 4.000000, 4.000000, 4.000000
13.000000, 0.000000, 4160.000000, 4178.974121, 4189.230469, 4178.974121, 4173.333008, 4181.538574, 4174.871582, 4176.410156, 4176.922852, 4185.641113, 4150.769043, 4207.179199, 4183.076660, 4156.922852, 3156.000000, 8273.000000, 7953.000000, 0.000000, 0.000000, 0.000000, 0.000000, 600.512817, 1545658603.354513, 4.000000, 4.000000, 4.000000, 4.000000, 4.000000, 4.000000, 4.000000, 4.000000, 4.000000, 4.000000, 4.000000, 4.000000, 4.000000, 4.000000, 4.000000, 4.000000
14.000000, 0.000000, 4165.127930, 4171.281738, 4189.743652, 4181.025391, 4170.256348, 4175.897461, 4170.769043, 4170.769043, 4169.230469, 4181.025391, 4151.794922, 4207.179199, 4182.563965, 4156.922852, 3554.000000, 8273.000000, 7953.000000, 0.000000, 0.000000, 0.000000, 0.000000, 608.205139, 1545658603.362205, 4.000000, 4.000000, 4.000000, 4.000000, 4.000000, 4.000000, 4.000000, 4.000000, 4.000000, 4.000000, 4.000000, 4.000000, 4.000000, 4.000000, 4.000000, 4.000000
15.000000, 0.000000, 4156.410156, 4167.692383, 4182.563965, 4172.820313, 4162.563965, 4169.230469, 4160.000000, 4158.461426, 4160.000000, 4173.333008, 4148.205078, 4201.025391, 4175.384277, 4153.333008, 3248.000000, 8271.000000, 7946.000000, 0.000000, 0.000000, 0.000000, 0.000000, 615.897400, 1545658603.369897, 4.000000, 4.000000, 4.000000, 4.000000, 4.000000, 4.000000, 4.000000, 4.000000, 4.000000, 4.000000, 4.000000, 4.000000, 4.000000, 4.000000, 4.000000, 4.000000
16.000000, 0.000000, 4149.230469, 4164.615234, 4174.358887, 4160.512695, 4160.000000, 4167.179199, 4160.512695, 4150.256348, 4153.333008, 4165.127930, 4135.384277, 4194.871582, 4164.102539, 4145.641113, 0.000000, 8271.000000, 7946.000000, 0.000000, 0.000000, 0.000000, 0.000000, 623.589722, 1545658603.377590, 4.000000, 4.000000, 4.000000, 4.000000, 4.000000, 4.000000, 4.000000, 4.000000, 4.000000, 4.000000, 4.000000, 4.000000, 4.000000, 4.000000, 4.000000, 4.000000
17.000000, 0.000000, 4156.922852, 4166.153809, 4181.025391, 4165.641113, 4167.179199, 4169.230469, 4165.641113, 4156.410156, 4161.025391, 4167.692383, 4142.051270, 4200.000000, 4167.692383, 4151.281738, 0.000000, 8254.000000, 7965.000000, 0.000000, 0.000000, 0.000000, 0.000000, 631.282043, 1545658603.385282, 4.000000, 4.000000, 4.000000, 4.000000, 4.000000, 4.000000, 4.000000, 4.000000, 4.000000, 4.000000, 4.000000, 4.000000, 4.000000, 4.000000, 4.000000, 4.000000
18.000000, 0.000000, 4163.076660, 4172.307617, 4190.769043, 4176.922852, 4172.307617, 4180.000000, 4176.410156, 4166.666504, 4173.333008, 4180.512695, 4160.000000, 4211.281738, 4183.589844, 4168.205078, 0.000000, 8254.000000, 7965.000000, 0.000000, 0.000000, 0.000000, 0.000000, 638.974365, 1545658603.392974, 4.000000, 4.000000, 4.000000, 4.000000, 4.000000, 4.000000, 4.000000, 4.000000, 4.000000, 4.000000, 4.000000, 4.000000, 4.000000, 4.000000, 4.000000, 4.000000
19.000000, 0.000000, 4157.436035, 4166.666504, 4187.692383, 4170.256348, 4167.692383, 4189.230469, 4187.692383, 4168.717773, 4174.358887, 4187.179199, 4156.922852, 4212.307617, 4183.076660, 4169.743652, 0.000000, 8252.000000, 7970.000000, 0.000000, 0.000000, 0.000000, 0.000000, 646.666687, 1545658603.400667, 4.000000, 4.000000, 4.000000, 4.000000, 4.000000, 4.000000, 4.000000, 4.000000, 4.000000, 4.000000, 4.000000, 4.000000, 4.000000, 4.000000, 4.000000, 4.000000
20.000000, 0.000000, 4151.281738, 4155.897461, 4181.025391, 4158.974121, 4163.076660, 4185.641113, 4193.333008, 4168.717773, 4171.281738, 4182.563965, 4146.153809, 4201.538574, 4171.281738, 4157.948730, 0.000000, 8252.000000, 7970.000000, 0.000000, 0.000000, 0.000000, 0.000000, 654.358948, 1545658603.408359, 4.000000, 4.000000, 4.000000, 4.000000, 4.000000, 4.000000, 4.000000, 4.000000, 4.000000, 4.000000, 4.000000, 4.000000, 4.000000, 4.000000, 4.000000, 4.000000
21.000000, 0.000000, 4151.794922, 4154.358887, 4178.461426, 4157.948730, 4162.563965, 4178.974121, 4192.307617, 4168.717773, 4173.333008, 4178.974121, 4146.153809, 4195.897461, 4171.281738, 4151.281738, 0.000000, 8256.000000, 7972.000000, 0.000000, 0.000000, 0.000000, 0.000000, 662.051270, 1545658603.416051, 4.000000, 4.000000, 4.000000, 4.000000, 4.000000, 4.000000, 4.000000, 4.000000, 4.000000, 4.000000, 4.000000, 4.000000, 4.000000, 4.000000, 4.000000, 4.000000
22.000000, 0.000000, 4152.820313, 4161.538574, 4176.410156, 4163.589844, 4166.666504, 4178.974121, 4176.410156, 4170.256348, 4177.948730, 4185.127930, 4153.846191, 4198.974121, 4180.000000, 4156.922852, 0.000000, 8256.000000, 7972.000000, 0.000000, 0.000000, 0.000000, 0.000000, 669.743591, 1545658603.423744, 4.000000, 4.000000, 4.000000, 4.000000, 4.000000, 4.000000, 4.000000, 4.000000, 4.000000, 4.000000, 4.000000, 4.000000, 4.000000, 4.000000, 4.000000, 4.000000
23.000000, 0.000000, 4146.153809, 4166.666504, 4174.871582, 4168.717773, 4170.769043, 4176.410156, 4157.436035, 4170.769043, 4181.025391, 4190.769043, 4159.487305, 4197.436035, 4176.410156, 4158.461426, 0.000000, 8267.000000, 7967.000000, 0.000000, 0.000000, 0.000000, 0.000000, 677.435913, 1545658603.431436, 4.000000, 4.000000, 4.000000, 4.000000, 4.000000, 4.000000, 4.000000, 4.000000, 4.000000, 4.000000, 4.000000, 4.000000, 4.000000, 4.000000, 4.000000, 4.000000
24.000000, 0.000000, 4137.948730, 4163.076660, 4171.281738, 4165.641113, 4164.615234, 4169.743652, 4154.358887, 4166.666504, 4178.974121, 4185.127930, 4152.307617, 4190.769043, 4168.205078, 4148.717773, 0.000000, 8267.000000, 7967.000000, 0.000000, 0.000000, 0.000000, 0.000000, 685.128174, 1545658603.439128, 4.000000, 4.000000, 4.000000, 4.000000, 4.000000, 4.000000, 4.000000, 4.000000, 4.000000, 4.000000, 4.000000, 4.000000, 4.000000, 4.000000, 4.000000, 4.000000
25.000000, 0.000000, 4146.666504, 4170.769043, 4178.974121, 4170.256348, 4165.641113, 4178.974121, 4168.205078, 4168.205078, 4182.051270, 4188.205078, 4155.384277, 4198.461426, 4180.000000, 4156.410156, 0.000000, 8282.000000, 7946.000000, 0.000000, 0.000000, 0.000000, 0.000000, 693.333313, 1545658603.447333, 4.000000, 4.000000, 4.000000, 4.000000, 4.000000, 4.000000, 4.000000, 4.000000, 4.000000, 4.000000, 4.000000, 4.000000, 4.000000, 4.000000, 4.000000, 4.000000
26.000000, 0.000000, 4165.641113, 4188.717773, 4197.948730, 4187.692383, 4182.051270, 4196.922852, 4182.051270, 4182.563965, 4195.897461, 4209.743652, 4182.051270, 4216.410156, 4202.563965, 4179.487305, 0.000000, 8282.000000, 7946.000000, 0.000000, 0.000000, 0.000000, 0.000000, 701.025635, 1545658603.455026, 4.000000, 4.000000, 4.000000, 4.000000, 4.000000, 4.000000, 4.000000, 4.000000, 4.000000, 4.000000, 4.000000, 4.000000, 4.000000, 4.000000, 4.000000, 4.000000
27.000000, 0.000000, 4166.666504, 4193.333008, 4199.487305, 4193.846191, 4185.127930, 4194.358887, 4186.153809, 4188.205078, 4200.512695, 4216.922852, 4187.692383, 4217.948730, 4202.051270, 4180.000000, 0.000000, 8285.000000, 7947.000000, 0.000000, 0.000000, 0.000000, 0.000000, 708.717957, 1545658603.462718, 4.000000, 4.000000, 4.000000, 4.000000, 4.000000, 4.000000, 4.000000, 4.000000, 4.000000, 4.000000, 4.000000, 4.000000, 4.000000, 4.000000, 4.000000, 4.000000
28.000000, 0.000000, 4153.846191, 4187.179199, 4183.589844, 4184.615234, 4173.846191, 4184.102539, 4185.127930, 4180.512695, 4190.256348, 4200.512695, 4167.692383, 4203.589844, 4186.666504, 4160.000000, 0.000000, 8285.000000, 7947.000000, 0.000000, 0.000000, 0.000000, 0.000000, 716.410217, 1545658603.470410, 4.000000, 4.000000, 4.000000, 4.000000, 4.000000, 4.000000, 4.000000, 4.000000, 4.000000, 4.000000, 4.000000, 4.000000, 4.000000, 4.000000, 4.000000, 4.000000
29.000000, 0.000000, 4149.230469, 4178.461426, 4176.922852, 4177.436035, 4172.820313, 4186.153809, 4181.538574, 4173.333008, 4180.000000, 4192.307617, 4160.512695, 4196.922852, 4176.410156, 4154.358887, 0.000000, 8288.000000, 7952.000000, 0.000000, 0.000000, 0.000000, 0.000000, 724.102539, 1545658603.478102, 4.000000, 4.000000, 4.000000, 4.000000, 4.000000, 4.000000, 4.000000, 4.000000, 4.000000, 4.000000, 4.000000, 4.000000, 4.000000, 4.000000, 4.000000, 4.000000
30.000000, 0.000000, 4152.820313, 4173.846191, 4183.076660, 4180.000000, 4181.025391, 4190.769043, 4184.615234, 4174.358887, 4182.051270, 4198.461426, 4169.230469, 4201.538574, 4174.358887, 4164.615234, 0.000000, 8288.000000, 7952.000000, 0.000000, 0.000000, 0.000000, 0.000000, 731.794861, 1545658603.485795, 4.000000, 4.000000, 4.000000, 4.000000, 4.000000, 4.000000, 4.000000, 4.000000, 4.000000, 4.000000, 4.000000, 4.000000, 4.000000, 4.000000, 4.000000, 4.000000
31.000000, 0.000000, 4158.974121, 4180.512695, 4189.743652, 4183.076660, 4185.127930, 4194.358887, 4193.333008, 4180.000000, 4191.281738, 4199.487305, 4168.717773, 4207.179199, 4177.948730, 4169.230469, 0.000000, 8285.000000, 7953.000000, 0.000000, 0.000000, 0.000000, 0.000000, 739.487183, 1545658603.493487, 4.000000, 4.000000, 4.000000, 4.000000, 4.000000, 4.000000, 4.000000, 4.000000, 4.000000, 4.000000, 4.000000, 4.000000, 4.000000, 4.000000, 4.000000, 4.000000
32.000000, 0.000000, 4165.127930, 4190.769043, 4196.922852, 4189.230469, 4188.205078, 4203.076660, 4199.487305, 4187.692383, 4198.461426, 4200.512695, 4166.153809, 4212.307617, 4179.487305, 4170.769043, 0.000000, 8285.000000, 7953.000000, 0.000000, 0.000000, 0.000000, 0.000000, 747.179504, 1545658603.501179, 4.000000, 4.000000, 4.000000, 4.000000, 4.000000, 4.000000, 4.000000, 4.000000, 4.000000, 4.000000, 4.000000, 4.000000, 4.000000, 4.000000, 4.000000, 4.000000
33.000000, 0.000000, 4168.205078, 4188.717773, 4200.512695, 4193.333008, 4188.205078, 4205.127930, 4201.538574, 4190.769043, 4197.948730, 4204.615234, 4170.769043, 4215.897461, 4179.487305, 4176.410156, 0.000000, 8280.000000, 7976.000000, 0.000000, 0.000000, 0.000000, 0.000000, 754.871765, 1545658603.508872, 4.000000, 4.000000, 4.000000, 4.000000, 4.000000, 4.000000, 4.000000, 4.000000, 4.000000, 4.000000, 4.000000, 4.000000, 4.000000, 4.000000, 4.000000, 4.000000
34.000000, 0.000000, 4167.692383, 4182.051270, 4197.948730, 4185.641113, 4184.615234, 4197.436035, 4194.358887, 4184.615234, 4188.717773, 4203.589844, 4170.256348, 4214.871582, 4176.922852, 4182.051270, 0.000000, 8280.000000, 7976.000000, 0.000000, 0.000000, 0.000000, 0.000000, 762.564087, 1545658603.516564, 4.000000, 4.000000, 4.000000, 4.000000, 4.000000, 4.000000, 4.000000, 4.000000, 4.000000, 4.000000, 4.000000, 4.000000, 4.000000, 4.000000, 4.000000, 4.000000
35.000000, 0.000000, 4173.333008, 4189.743652, 4201.025391, 4186.666504, 4187.692383, 4201.025391, 4191.794922, 4186.153809, 4189.743652, 4205.127930, 4171.794922, 4218.974121, 4185.127930, 4187.692383, 0.000000, 8283.000000, 7999.000000, 0.000000, 0.000000, 0.000000, 0.000000, 770.256409, 1545658603.524256, 4.000000, 4.000000, 4.000000, 4.000000, 4.000000, 4.000000, 4.000000, 4.000000, 4.000000, 4.000000, 4.000000, 4.000000, 4.000000, 4.000000, 4.000000, 4.000000
36.000000, 0.000000, 4175.897461, 4193.846191, 4202.563965, 4193.846191, 4188.717773, 4203.589844, 4188.205078, 4188.205078, 4193.333008, 4206.153809, 4174.871582, 4221.538574, 4188.717773, 4187.692383, 0.000000, 8283.000000, 7999.000000, 0.000000, 0.000000, 0.000000, 0.000000, 777.948730, 1545658603.531949, 4.000000, 4.000000, 4.000000, 4.000000, 4.000000, 4.000000, 4.000000, 4.000000, 4.000000, 4.000000, 4.000000, 4.000000, 4.000000, 4.000000, 4.000000, 4.000000
37.000000, 0.000000, 4166.666504, 4183.589844, 4196.410156, 4191.281738, 4186.666504, 4195.384277, 4183.076660, 4184.615234, 4187.179199, 4201.538574, 4165.127930, 4216.922852, 4172.820313, 4184.102539, 0.000000, 8313.000000, 8027.000000, 0.000000, 0.000000, 0.000000, 0.000000, 785.640991, 1545658603.539641, 4.000000, 4.000000, 4.000000, 4.000000, 4.000000, 4.000000, 4.000000, 4.000000, 4.000000, 4.000000, 4.000000, 4.000000, 4.000000, 4.000000, 4.000000, 4.000000
38.000000, 0.000000, 4158.974121, 4172.820313, 4190.256348, 4180.000000, 4181.538574, 4191.281738, 4192.820313, 4185.641113, 4184.102539, 4200.000000, 4155.897461, 4211.794922, 4162.563965, 4183.076660, 0.000000, 8313.000000, 8027.000000, 0.000000, 0.000000, 0.000000, 0.000000, 793.333313, 1545658603.547333, 4.000000, 4.000000, 4.000000, 4.000000, 4.000000, 4.000000, 4.000000, 4.000000, 4.000000, 4.000000, 4.000000, 4.000000, 4.000000, 4.000000, 4.000000, 4.000000
39.000000, 0.000000, 4154.358887, 4168.205078, 4185.127930, 4177.436035, 4173.846191, 4187.179199, 4196.410156, 4185.127930, 4190.256348, 4200.512695, 4160.000000, 4208.717773, 4166.153809, 4182.563965, 0.000000, 8324.000000, 8026.000000, 0.000000, 0.000000, 0.000000, 0.000000, 801.538452, 1545658603.555539, 4.000000, 4.000000, 4.000000, 4.000000, 4.000000, 4.000000, 4.000000, 4.000000, 4.000000, 4.000000, 4.000000, 4.000000, 4.000000, 4.000000, 4.000000, 4.000000
40.000000, 0.000000, 4154.871582, 4169.230469, 4185.127930, 4183.589844, 4176.410156, 4185.641113, 4188.717773, 4182.051270, 4197.948730, 4203.076660, 4165.127930, 4209.230469, 4170.769043, 4184.102539, 0.000000, 8324.000000, 8026.000000, 0.000000, 0.000000, 0.000000, 0.000000, 809.230774, 1545658603.563231, 4.000000, 4.000000, 4.000000, 4.000000, 4.000000, 4.000000, 4.000000, 4.000000, 4.000000, 4.000000, 4.000000, 4.000000, 4.000000, 4.000000, 4.000000, 4.000000
41.000000, 0.000000, 4163.076660, 4177.436035, 4193.846191, 4184.615234, 4185.641113, 4196.410156, 4193.333008, 4185.641113, 4203.589844, 4210.256348, 4170.769043, 4215.384277, 4171.794922, 4196.410156, 0.000000, 8342.000000, 8038.000000, 0.000000, 0.000000, 0.000000, 0.000000, 816.923035, 1545658603.570923, 4.000000, 4.000000, 4.000000, 4.000000, 4.000000, 4.000000, 4.000000, 4.000000, 4.000000, 4.000000, 4.000000, 4.000000, 4.000000, 4.000000, 4.000000, 4.000000
42.000000, 0.000000, 4173.846191, 4188.205078, 4203.589844, 4188.717773, 4194.358887, 4206.153809, 4205.127930, 4197.948730, 4205.641113, 4217.436035, 4181.025391, 4226.153809, 4184.615234, 4209.743652, 0.000000, 8342.000000, 8038.000000, 0.000000, 0.000000, 0.000000, 0.000000, 824.615356, 1545658603.578615, 4.000000, 4.000000, 4.000000, 4.000000, 4.000000, 4.000000, 4.000000, 4.000000, 4.000000, 4.000000, 4.000000, 4.000000, 4.000000, 4.000000, 4.000000, 4.000000
43.000000, 0.000000, 4175.897461, 4192.307617, 4206.153809, 4201.538574, 4201.025391, 4205.127930, 4206.153809, 4204.615234, 4206.666504, 4221.025391, 4180.512695, 4227.179199, 4193.333008, 4207.179199, 0.000000, 8349.000000, 8042.000000, 0.000000, 0.000000, 0.000000, 0.000000, 832.307678, 1545658603.586308, 4.000000, 4.000000, 4.000000, 4.000000, 4.000000, 4.000000, 4.000000, 4.000000, 4.000000, 4.000000, 4.000000, 4.000000, 4.000000, 4.000000, 4.000000, 4.000000
44.000000, 0.000000, 4169.230469, 4187.179199, 4203.076660, 4197.948730, 4196.922852, 4200.512695, 4196.410156, 4197.948730, 4205.641113, 4218.461426, 4169.743652, 4217.948730, 4180.512695, 4200.512695, 0.000000, 8349.000000, 8042.000000, 0.000000, 0.000000, 0.000000, 0.000000, 840.000000, 1545658603.594000, 4.000000, 4.000000, 4.000000, 4.000000, 4.000000, 4.000000, 4.000000, 4.000000, 4.000000, 4.000000, 4.000000, 4.000000, 4.000000, 4.000000, 4.000000, 4.000000
45.000000, 0.000000, 4166.153809, 4176.410156, 4195.897461, 4180.512695, 4183.589844, 4193.846191, 4184.615234, 4187.692383, 4200.512695, 4208.717773, 4168.717773, 4215.897461, 4170.256348, 4201.025391, 0.000000, 8355.000000, 8072.000000, 0.000000, 0.000000, 0.000000, 0.000000, 847.692322, 1545658603.601692, 4.000000, 4.000000, 4.000000, 4.000000, 4.000000, 4.000000, 4.000000, 4.000000, 4.000000, 4.000000, 4.000000, 4.000000, 4.000000, 4.000000, 4.000000, 4.000000
46.000000, 0.000000, 4160.512695, 4168.205078, 4185.641113, 4173.846191, 4176.922852, 4186.666504, 4184.102539, 4183.589844, 4189.743652, 4198.974121, 4165.641113, 4216.410156, 4165.641113, 4196.922852, 0.000000, 8355.000000, 8072.000000, 0.000000, 0.000000, 0.000000, 0.000000, 855.384583, 1545658603.609385, 4.000000, 4.000000, 4.000000, 4.000000, 4.000000, 4.000000, 4.000000, 4.000000, 4.000000, 4.000000, 4.000000, 4.000000, 4.000000, 4.000000, 4.000000, 4.000000
47.000000, 0.000000, 4162.563965, 4173.333008, 4188.717773, 4182.051270, 4182.051270, 4191.281738, 4202.051270, 4185.641113, 4188.717773, 4205.127930, 4166.666504, 4216.922852, 4164.615234, 4200.512695, 0.000000, 8362.000000, 8076.000000, 0.000000, 0.000000, 0.000000, 0.000000, 863.076904, 1545658603.617077, 4.000000, 4.000000, 4.000000, 4.000000, 4.000000, 4.000000, 4.000000, 4.000000, 4.000000, 4.000000, 4.000000, 4.000000, 4.000000, 4.000000, 4.000000, 4.000000
48.000000, 0.000000, 4178.461426, 4188.717773, 4206.153809, 4192.307617, 4192.307617, 4203.076660, 4202.051270, 4190.769043, 4203.589844, 4220.000000, 4184.102539, 4229.230469, 4174.358887, 4215.897461, 0.000000, 8362.000000, 8076.000000, 0.000000, 0.000000, 0.000000, 0.000000, 870.769226, 1545658603.624769, 4.000000, 4.000000, 4.000000, 4.000000, 4.000000, 4.000000, 4.000000, 4.000000, 4.000000, 4.000000, 4.000000, 4.000000, 4.000000, 4.000000, 4.000000, 4.000000
49.000000, 0.000000, 4181.025391, 4189.743652, 4208.205078, 4190.256348, 4194.871582, 4201.025391, 4185.641113, 4190.769043, 4205.641113, 4216.410156, 4185.127930, 4232.307617, 4175.384277, 4219.487305, 0.000000, 8373.000000, 8079.000000, 0.000000, 0.000000, 0.000000, 0.000000, 878.461548, 1545658603.632461, 4.000000, 4.000000, 4.000000, 4.000000, 4.000000, 4.000000, 4.000000, 4.000000, 4.000000, 4.000000, 4.000000, 4.000000, 4.000000, 4.000000, 4.000000, 4.000000
50.000000, 0.000000, 4165.127930, 4172.307617, 4193.846191, 4178.974121, 4181.538574, 4186.666504, 4180.512695, 4175.897461, 4184.102539, 4197.436035, 4165.641113, 4215.897461, 4155.897461, 4209.230469, 0.000000, 8373.000000, 8079.000000, 0.000000, 0.000000, 0.000000, 0.000000, 886.153809, 1545658603.640154, 4.000000, 4.000000, 4.000000, 4.000000, 4.000000, 4.000000, 4.000000, 4.000000, 4.000000, 4.000000, 4.000000, 4.000000, 4.000000, 4.000000, 4.000000, 4.000000
51.000000, 0.000000, 4165.641113, 4170.769043, 4194.871582, 4183.076660, 4176.410156, 4184.102539, 4186.153809, 4171.794922, 4182.563965, 4200.512695, 4167.692383, 4214.358887, 4150.769043, 4210.769043, 0.000000, 8379.000000, 8073.000000, 0.000000, 0.000000, 0.000000, 0.000000, 893.846130, 1545658603.647846, 4.000000, 4.000000, 4.000000, 4.000000, 4.000000, 4.000000, 4.000000, 4.000000, 4.000000, 4.000000, 4.000000, 4.000000, 4.000000, 4.000000, 4.000000, 4.000000
52.000000, 0.000000, 4184.615234, 4188.717773, 4209.743652, 4194.358887, 4188.205078, 4192.307617, 4191.281738, 4188.717773, 4206.153809, 4217.948730, 4190.256348, 4232.307617, 4173.846191, 4226.666504, 0.000000, 8379.000000, 8073.000000, 0.000000, 0.000000, 0.000000, 0.000000, 901.538452, 1545658603.655539, 4.000000, 4.000000, 4.000000, 4.000000, 4.000000, 4.000000, 4.000000, 4.000000, 4.000000, 4.000000, 4.000000, 4.000000, 4.000000, 4.000000, 4.000000, 4.000000
53.000000, 0.000000, 4195.384277, 4199.487305, 4216.410156, 4197.948730, 4197.948730, 4196.922852, 4198.461426, 4201.538574, 4217.948730, 4221.025391, 4198.461426, 4242.563965, 4185.641113, 4243.589844, 0.000000, 8385.000000, 8057.000000, 0.000000, 0.000000, 0.000000, 0.000000, 909.743591, 1545658603.663744, 4.000000, 4.000000, 4.000000, 4.000000, 4.000000, 4.000000, 4.000000, 4.000000, 4.000000, 4.000000, 4.000000, 4.000000, 4.000000, 4.000000, 4.000000, 4.000000
54.000000, 0.000000, 4201.025391, 4204.615234, 4223.076660, 4205.641113, 4204.615234, 4205.641113, 4210.769043, 4209.230469, 4221.025391, 4223.589844, 4201.538574, 4246.153809, 4181.538574, 4252.307617, 0.000000, 8385.000000, 8057.000000, 0.000000, 0.000000, 0.000000, 0.000000, 917.435852, 1545658603.671436, 4.000000, 4.000000, 4.000000, 4.000000, 4.000000, 4.000000, 4.000000, 4.000000, 4.000000, 4.000000, 4.000000, 4.000000, 4.000000, 4.000000, 4.000000, 4.000000
55.000000, 0.000000, 4206.666504, 4210.256348, 4228.717773, 4210.769043, 4207.692383, 4213.846191, 4216.410156, 4215.384277, 4227.692383, 4232.820313, 4209.230469, 4251.794922, 4186.153809, 4250.769043, 0.000000, 8389.000000, 8053.000000, 0.000000, 0.000000, 0.000000, 0.000000, 925.128174, 1545658603.679128, 4.000000, 4.000000, 4.000000, 4.000000, 4.000000, 4.000000, 4.000000, 4.000000, 4.000000, 4.000000, 4.000000, 4.000000, 4.000000, 4.000000, 4.000000, 4.000000
56.000000, 0.000000, 4205.641113, 4208.717773, 4223.589844, 4209.230469, 4205.641113, 4212.820313, 4214.871582, 4210.256348, 4225.127930, 4232.820313, 4211.281738, 4252.820313, 4197.436035, 4254.358887, 0.000000, 8389.000000, 8053.000000, 0.000000, 0.000000, 0.000000, 0.000000, 932.820496, 1545658603.686821, 4.000000, 4.000000, 4.000000, 4.000000, 4.000000, 4.000000, 4.000000, 4.000000, 4.000000, 4.000000, 4.000000, 4.000000, 4.000000, 4.000000, 4.000000, 4.000000
57.000000, 0.000000, 4205.127930, 4201.538574, 4217.436035, 4212.307617, 4205.127930, 4210.256348, 4212.307617, 4200.000000, 4214.871582, 4227.179199, 4211.794922, 4251.281738, 4206.153809, 4262.563965, 0.000000, 8385.000000, 8075.000000, 0.000000, 0.000000, 0.000000, 0.000000, 940.512817, 1545658603.694513, 4.000000, 4.000000, 4.000000, 4.000000, 4.000000, 4.000000, 4.000000, 4.000000, 4.000000, 4.000000, 4.000000, 4.000000, 4.000000, 4.000000, 4.000000, 4.000000
58.000000, 0.000000, 4206.666504, 4203.076660, 4220.512695, 4212.820313, 4207.179199, 4208.717773, 4208.717773, 4201.538574, 4217.436035, 4225.127930, 4212.820313, 4250.769043, 4220.512695, 4258.974121, 0.000000, 8385.000000, 8075.000000, 0.000000, 0.000000, 0.000000, 0.000000, 948.205139, 1545658603.702205, 4.000000, 4.000000, 4.000000, 4.000000, 4.000000, 4.000000, 4.000000, 4.000000, 4.000000, 4.000000, 4.000000, 4.000000, 4.000000, 4.000000, 4.000000, 4.000000
59.000000, 0.000000, 4202.563965, 4202.563965, 4217.436035, 4202.051270, 4203.076660, 4203.076660, 4203.076660, 4202.563965, 4217.436035, 4220.000000, 4208.205078, 4247.179199, 4238.974121, 4249.743652, 0.000000, 8382.000000, 8088.000000, 0.000000, 0.000000, 0.000000, 0.000000, 955.897400, 1545658603.709898, 4.000000, 4.000000, 4.000000, 4.000000, 4.000000, 4.000000, 4.000000, 4.000000, 4.000000, 4.000000, 4.000000, 4.000000, 4.000000, 4.000000, 4.000000, 4.000000
60.000000, 0.000000, 4194.871582, 4194.358887, 4208.717773, 4193.333008, 4192.307617, 4200.000000, 4196.922852, 4191.794922, 4204.102539, 4214.358887, 4201.025391, 4244.615234, 4254.871582, 4245.127930, 0.000000, 8382.000000, 8088.000000, 0.000000, 0.000000, 0.000000, 0.000000, 963.589722, 1545658603.717590, 4.000000, 4.000000, 4.000000, 4.000000, 4.000000, 4.000000, 4.000000, 4.000000, 4.000000, 4.000000, 4.000000, 4.000000, 4.000000, 4.000000, 4.000000, 4.000000
61.000000, 0.000000, 4191.794922, 4196.922852, 4211.281738, 4195.384277, 4191.281738, 4204.615234, 4203.076660, 4191.281738, 4202.051270, 4217.948730, 4203.076660, 4244.615234, 4274.358887, 4242.051270, 0.000000, 8384.000000, 8123.000000, 0.000000, 0.000000, 0.000000, 0.000000, 971.282043, 1545658603.725282, 4.000000, 4.000000, 4.000000, 4.000000, 4.000000, 4.000000, 4.000000, 4.000000, 4.000000, 4.000000, 4.000000, 4.000000, 4.000000, 4.000000, 4.000000, 4.000000
62.000000, 0.000000, 4188.717773, 4198.461426, 4212.307617, 4196.922852, 4196.410156, 4202.563965, 4210.256348, 4195.897461, 4206.153809, 4216.410156, 4202.051270, 4241.538574, 4287.692383, 4235.384277, 0.000000, 8384.000000, 8123.000000, 0.000000, 0.000000, 0.000000, 0.000000, 978.974365, 1545658603.732974, 4.000000, 4.000000, 4.000000, 4.000000, 4.000000, 4.000000, 4.000000, 4.000000, 4.000000, 4.000000, 4.000000, 4.000000, 4.000000, 4.000000, 4.000000, 4.000000
63.000000, 0.000000, 4184.102539, 4191.794922, 4203.076660, 4196.922852, 4196.410156, 4198.974121, 4204.102539, 4190.256348, 4200.000000, 4205.641113, 4189.743652, 4233.333008, 4285.127930, 4228.717773, 0.000000, 8385.000000, 8135.000000, 0.000000, 0.000000, 0.000000, 0.000000, 986.666626, 1545658603.740666, 4.000000, 4.000000, 4.000000, 4.000000, 4.000000, 4.000000, 4.000000, 4.000000, 4.000000, 4.000000, 4.000000, 4.000000, 4.000000, 4.000000, 4.000000, 4.000000
64.000000, 0.000000, 4184.102539, 4194.358887, 4201.025391, 4200.512695, 4198.461426, 4205.641113, 4197.948730, 4185.127930, 4197.436035, 4201.025391, 4188.205078, 4232.307617, 4288.205078, 4228.205078, 3333.000000, 8385.000000, 8135.000000, 0.000000, 0.000000, 0.000000, 0.000000, 994.358948, 1545658603.748359, 4.000000, 4.000000, 4.000000, 4.000000, 4.000000, 4.000000, 4.000000, 4.000000, 4.000000, 4.000000, 4.000000, 4.000000, 4.000000, 4.000000, 4.000000, 4.000000
65.000000, 0.000000, 4182.563965, 4200.000000, 4207.692383, 4201.025391, 4201.025391, 4208.717773, 4201.538574, 4190.769043, 4202.051270, 4206.153809, 4190.769043, 4237.436035, 4295.384277, 4227.692383, 3526.000000, 8388.000000, 8139.000000, 0.000000, 0.000000, 0.000000, 1.000000, 2.051270, 1545658603.756051, 4.000000, 4.000000, 4.000000, 4.000000, 4.000000, 4.000000, 4.000000, 4.000000, 4.000000, 4.000000, 4.000000, 4.000000, 4.000000, 4.000000, 4.000000, 4.000000
66.000000, 0.000000, 4169.743652, 4184.615234, 4197.436035, 4187.692383, 4187.692383, 4189.743652, 4193.846191, 4186.153809, 4193.333008, 4201.025391, 4177.436035, 4229.743652, 4282.563965, 4213.846191, 3315.000000, 8388.000000, 8139.000000, 0.000000, 0.000000, 0.000000, 1.000000, 9.743591, 1545658603.763744, 4.000000, 4.000000, 4.000000, 4.000000, 4.000000, 4.000000, 4.000000, 4.000000, 4.000000, 4.000000, 4.000000, 4.000000, 4.000000, 4.000000, 4.000000, 4.000000
67.000000, 0.000000, 4157.948730, 4167.692383, 4178.461426, 4173.333008, 4173.846191, 4175.384277, 4180.512695, 4171.794922, 4180.000000, 4189.230469, 4166.666504, 4217.436035, 4267.179199, 4198.974121, 3579.000000, 8387.000000, 8137.000000, 0.000000, 0.000000, 0.000000, 1.000000, 17.948669, 1545658603.771949, 4.000000, 4.000000, 4.000000, 4.000000, 4.000000, 4.000000, 4.000000, 4.000000, 4.000000, 4.000000, 4.000000, 4.000000, 4.000000, 4.000000, 4.000000, 4.000000
68.000000, 0.000000, 4166.153809, 4180.512695, 4187.179199, 4183.076660, 4188.717773, 4193.846191, 4197.948730, 4180.000000, 4190.256348, 4196.410156, 4181.538574, 4224.102539, 4274.871582, 4207.692383, 3402.000000, 8387.000000, 8137.000000, 0.000000, 0.000000, 0.000000, 1.000000, 25.641032, 1545658603.779641, 4.000000, 4.000000, 4.000000, 4.000000, 4.000000, 4.000000, 4.000000, 4.000000, 4.000000, 4.000000, 4.000000, 4.000000, 4.000000, 4.000000, 4.000000, 4.000000
69.000000, 0.000000, 4179.487305, 4203.076660, 4206.666504, 4202.563965, 4207.179199, 4212.820313, 4223.076660, 4201.538574, 4213.846191, 4216.922852, 4193.846191, 4237.436035, 4288.205078, 4222.051270, 3491.000000, 8391.000000, 8157.000000, 0.000000, 0.000000, 0.000000, 1.000000, 33.333340, 1545658603.787333, 4.000000, 4.000000, 4.000000, 4.000000, 4.000000, 4.000000, 4.000000, 4.000000, 4.000000, 4.000000, 4.000000, 4.000000, 4.000000, 4.000000, 4.000000, 4.000000
70.000000, 0.000000, 4173.333008, 4196.922852, 4200.000000, 4196.922852, 4200.000000, 4205.127930, 4211.794922, 4199.487305, 4213.846191, 4216.922852, 4185.127930, 4230.769043, 4278.461426, 4214.358887, 3398.000000, 8391.000000, 8157.000000, 0.000000, 0.000000, 0.000000, 1.000000, 41.025646, 1545658603.795026, 4.000000, 4.000000, 4.000000, 4.000000, 4.000000, 4.000000, 4.000000, 4.000000, 4.000000, 4.000000, 4.000000, 4.000000, 4.000000, 4.000000, 4.000000, 4.000000
71.000000, 0.000000, 4168.205078, 4182.051270, 4191.794922, 4189.743652, 4192.307617, 4199.487305, 4197.948730, 4190.256348, 4204.102539, 4206.153809, 4185.641113, 4225.641113, 4265.641113, 4212.307617, 3238.000000, 8387.000000, 8162.000000, 0.000000, 0.000000, 0.000000, 1.000000, 48.717955, 1545658603.802718, 4.000000, 4.000000, 4.000000, 4.000000, 4.000000, 4.000000, 4.000000, 4.000000, 4.000000, 4.000000, 4.000000, 4.000000, 4.000000, 4.000000, 4.000000, 4.000000
72.000000, 0.000000, 4179.487305, 4192.307617, 4205.127930, 4196.410156, 4195.897461, 4203.589844, 4208.205078, 4200.000000, 4209.743652, 4212.820313, 4199.487305, 4235.384277, 4272.307617, 4228.717773, 3412.000000, 8387.000000, 8162.000000, 0.000000, 0.000000, 0.000000, 1.000000, 56.410263, 1545658603.810410, 4.000000, 4.000000, 4.000000, 4.000000, 4.000000, 4.000000, 4.000000, 4.000000, 4.000000, 4.000000, 4.000000, 4.000000, 4.000000, 4.000000, 4.000000, 4.000000
73.000000, 0.000000, 4189.743652, 4201.025391, 4211.794922, 4196.410156, 4195.897461, 4198.974121, 4208.717773, 4202.563965, 4213.333008, 4218.461426, 4202.563965, 4240.000000, 4272.820313, 4233.846191, 3229.000000, 8383.000000, 8160.000000, 0.000000, 0.000000, 0.000000, 1.000000, 64.102570, 1545658603.818103, 4.000000, 4.000000, 4.000000, 4.000000, 4.000000, 4.000000, 4.000000, 4.000000, 4.000000, 4.000000, 4.000000, 4.000000, 4.000000, 4.000000, 4.000000, 4.000000
74.000000, 0.000000, 4184.615234, 4188.205078, 4201.538574, 4190.769043, 4188.717773, 4186.666504, 4193.333008, 4189.743652, 4202.563965, 4204.102539, 4194.358887, 4233.333008, 4255.384277, 4227.179199, 3550.000000, 8383.000000, 8160.000000, 0.000000, 0.000000, 0.000000, 1.000000, 71.794876, 1545658603.825795, 4.000000, 4.000000, 4.000000, 4.000000, 4.000000, 4.000000, 4.000000, 4.000000, 4.000000, 4.000000, 4.000000, 4.000000, 4.000000, 4.000000, 4.000000, 4.000000
75.000000, 0.000000, 4179.487305, 4183.589844, 4196.410156, 4192.307617, 4180.512695, 4179.487305, 4187.179199, 4185.127930, 4193.333008, 4192.307617, 4188.717773, 4227.179199, 4243.076660, 4223.589844, 3247.000000, 8377.000000, 8157.000000, 0.000000, 0.000000, 0.000000, 1.000000, 79.487183, 1545658603.833487, 4.000000, 4.000000, 4.000000, 4.000000, 4.000000, 4.000000, 4.000000, 4.000000, 4.000000, 4.000000, 4.000000, 4.000000, 4.000000, 4.000000, 4.000000, 4.000000
76.000000, 0.000000, 4197.948730, 4208.205078, 4211.281738, 4206.666504, 4191.281738, 4198.974121, 4205.641113, 4203.076660, 4209.230469, 4210.769043, 4205.127930, 4237.436035, 4257.948730, 4236.410156, 3520.000000, 8377.000000, 8157.000000, 0.000000, 0.000000, 0.000000, 1.000000, 87.692314, 1545658603.841692, 4.000000, 4.000000, 4.000000, 4.000000, 4.000000, 4.000000, 4.000000, 4.000000, 4.000000, 4.000000, 4.000000, 4.000000, 4.000000, 4.000000, 4.000000, 4.000000
77.000000, 0.000000, 4219.487305, 4222.563965, 4224.615234, 4218.974121, 4216.410156, 4224.615234, 4225.641113, 4217.436035, 4229.743652, 4232.307617, 4226.153809, 4251.281738, 4275.897461, 4256.410156, 3156.000000, 8378.000000, 8164.000000, 0.000000, 0.000000, 0.000000, 1.000000, 95.384621, 1545658603.849385, 4.000000, 4.000000, 4.000000, 4.000000, 4.000000, 4.000000, 4.000000, 4.000000, 4.000000, 4.000000, 4.000000, 4.000000, 4.000000, 4.000000, 4.000000, 4.000000
78.000000, 0.000000, 4213.846191, 4209.743652, 4217.436035, 4215.384277, 4218.461426, 4218.974121, 4221.538574, 4211.794922, 4228.717773, 4227.692383, 4224.615234, 4245.127930, 4270.769043, 4256.922852, 3550.000000, 8378.000000, 8164.000000, 0.000000, 0.000000, 0.000000, 1.000000, 103.076927, 1545658603.857077, 4.000000, 4.000000, 4.000000, 4.000000, 4.000000, 4.000000, 4.000000, 4.000000, 4.000000, 4.000000, 4.000000, 4.000000, 4.000000, 4.000000, 4.000000, 4.000000
79.000000, 0.000000, 4197.436035, 4198.974121, 4202.051270, 4201.025391, 4202.051270, 4201.538574, 4204.615234, 4203.076660, 4218.974121, 4219.487305, 4209.230469, 4232.820313, 4255.897461, 4240.512695, 3247.000000, 8367.000000, 8166.000000, 0.000000, 0.000000, 0.000000, 1.000000, 110.769234, 1545658603.864769, 4.000000, 4.000000, 4.000000, 4.000000, 4.000000, 4.000000, 4.000000, 4.000000, 4.000000, 4.000000, 4.000000, 4.000000, 4.000000, 4.000000, 4.000000, 4.000000
80.000000, 0.000000, 4194.358887, 4194.871582, 4190.769043, 4190.769043, 4192.820313, 4197.436035, 4196.922852, 4193.846191, 4207.179199, 4211.281738, 4198.461426, 4226.153809, 4242.051270, 4228.205078, 3520.000000, 8367.000000, 8166.000000, 0.000000, 0.000000, 0.000000, 1.000000, 118.461540, 1545658603.872461, 4.000000, 4.000000, 4.000000, 4.000000, 4.000000, 4.000000, 4.000000, 4.000000, 4.000000, 4.000000, 4.000000, 4.000000, 4.000000, 4.000000, 4.000000, 4.000000
81.000000, 0.000000, 4201.538574, 4191.281738, 4196.410156, 4196.410156, 4193.333008, 4196.922852, 4202.051270, 4190.769043, 4202.051270, 4205.641113, 4198.461426, 4228.717773, 4236.922852, 4234.871582, 3156.000000, 8370.000000, 8165.000000, 0.000000, 0.000000, 0.000000, 1.000000, 126.153847, 1545658603.880154, 4.000000, 4.000000, 4.000000, 4.000000, 4.000000, 4.000000, 4.000000, 4.000000, 4.000000, 4.000000, 4.000000, 4.000000, 4.000000, 4.000000, 4.000000, 4.000000
82.000000, 0.000000, 4203.589844, 4186.666504, 4202.051270, 4199.487305, 4191.794922, 4191.281738, 4204.615234, 4197.436035, 4208.205078, 4208.717773, 4203.076660, 4233.846191, 4235.384277, 4243.076660, 3550.000000, 8370.000000, 8165.000000, 0.000000, 0.000000, 0.000000, 1.000000, 133.846161, 1545658603.887846, 4.000000, 4.000000, 4.000000, 4.000000, 4.000000, 4.000000, 4.000000, 4.000000, 4.000000, 4.000000, 4.000000, 4.000000, 4.000000, 4.000000, 4.000000, 4.000000
83.000000, 0.000000, 4198.974121, 4183.589844, 4192.820313, 4189.743652, 4189.230469, 4185.641113, 4202.051270, 4196.922852, 4208.205078, 4208.205078, 4198.974121, 4230.769043, 4226.153809, 4235.384277, 3247.000000, 8372.000000, 8171.000000, 0.000000, 0.000000, 0.000000, 1.000000, 141.538467, 1545658603.895539, 4.000000, 4.000000, 4.000000, 4.000000, 4.000000, 4.000000, 4.000000, 4.000000, 4.000000, 4.000000, 4.000000, 4.000000, 4.000000, 4.000000, 4.000000, 4.000000
84.000000, 0.000000, 4194.358887, 4187.692383, 4188.205078, 4184.102539, 4193.846191, 4194.871582, 4207.179199, 4193.846191, 4203.076660, 4205.641113, 4191.281738, 4218.974121, 4214.358887, 4226.666504, 3520.000000, 8372.000000, 8171.000000, 0.000000, 0.000000, 0.000000, 1.000000, 149.743591, 1545658603.903744, 4.000000, 4.000000, 4.000000, 4.000000, 4.000000, 4.000000, 4.000000, 4.000000, 4.000000, 4.000000, 4.000000, 4.000000, 4.000000, 4.000000, 4.000000, 4.000000
85.000000, 0.000000, 4197.948730, 4192.307617, 4193.333008, 4194.871582, 4201.538574, 4211.794922, 4216.922852, 4202.051270, 4211.281738, 4211.281738, 4191.281738, 4215.384277, 4211.794922, 4227.692383, 3156.000000, 8377.000000, 8173.000000, 0.000000, 0.000000, 0.000000, 1.000000, 157.435898, 1545658603.911436, 4.000000, 4.000000, 4.000000, 4.000000, 4.000000, 4.000000, 4.000000, 4.000000, 4.000000, 4.000000, 4.000000, 4.000000, 4.000000, 4.000000, 4.000000, 4.000000
86.000000, 0.000000, 4202.051270, 4191.794922, 4190.769043, 4203.589844, 4204.102539, 4215.384277, 4224.615234, 4210.256348, 4215.897461, 4210.769043, 4189.743652, 4218.461426, 4205.641113, 4227.179199, 3550.000000, 8377.000000, 8173.000000, 0.000000, 0.000000, 0.000000, 1.000000, 165.128204, 1545658603.919128, 4.000000, 4.000000, 4.000000, 4.000000, 4.000000, 4.000000, 4.000000, 4.000000, 4.000000, 4.000000, 4.000000, 4.000000, 4.000000, 4.000000, 4.000000, 4.000000
87.000000, 0.000000, 4202.563965, 4192.820313, 4186.153809, 4198.461426, 4202.051270, 4208.717773, 4221.025391, 4202.051270, 4205.641113, 4203.076660, 4183.589844, 4214.358887, 4194.358887, 4222.563965, 3247.000000, 8377.000000, 8165.000000, 0.000000, 0.000000, 0.000000, 1.000000, 172.820511, 1545658603.926821, 4.000000, 4.000000, 4.000000, 4.000000, 4.000000, 4.000000, 4.000000, 4.000000, 4.000000, 4.000000, 4.000000, 4.000000, 4.000000, 4.000000, 4.000000, 4.000000
88.000000, 0.000000, 4211.281738, 4197.436035, 4195.384277, 4197.436035, 4205.127930, 4212.307617, 4218.974121, 4200.000000, 4211.281738, 4216.410156, 4199.487305, 4220.000000, 4211.281738, 4235.384277, 3520.000000, 8377.000000, 8165.000000, 0.000000, 0.000000, 0.000000, 1.000000, 180.512817, 1545658603.934513, 4.000000, 4.000000, 4.000000, 4.000000, 4.000000, 4.000000, 4.000000, 4.000000, 4.000000, 4.000000, 4.000000, 4.000000, 4.000000, 4.000000, 4.000000, 4.000000
89.000000, 0.000000, 4229.230469, 4201.538574, 4207.692383, 4205.641113, 4210.256348, 4220.000000, 4228.205078, 4215.897461, 4234.358887, 4240.000000, 4232.820313, 4241.538574, 4246.666504, 4256.410156, 3156.000000, 8377.000000, 8163.000000, 0.000000, 0.000000, 0.000000, 1.000000, 188.205124, 1545658603.942205, 4.000000, 4.000000, 4.000000, 4.000000, 4.000000, 4.000000, 4.000000, 4.000000, 4.000000, 4.000000, 4.000000, 4.000000, 4.000000, 4.000000, 4.000000, 4.000000
90.000000, 0.000000, 4237.948730, 4191.794922, 4211.281738, 4205.127930, 4202.051270, 4211.281738, 4225.641113, 4220.512695, 4236.922852, 4242.051270, 4244.615234, 4248.717773, 4259.487305, 4263.076660, 3550.000000, 8377.000000, 8163.000000, 0.000000, 0.000000, 0.000000, 1.000000, 195.897430, 1545658603.949898, 4.000000, 4.000000, 4.000000, 4.000000, 4.000000, 4.000000, 4.000000, 4.000000, 4.000000, 4.000000, 4.000000, 4.000000, 4.000000, 4.000000, 4.000000, 4.000000
91.000000, 0.000000, 4234.358887, 4175.897461, 4210.769043, 4193.846191, 4191.281738, 4198.974121, 4207.692383, 4207.179199, 4224.102539, 4232.307617, 4237.948730, 4238.461426, 4262.563965, 4263.076660, 3247.000000, 8375.000000, 8170.000000, 0.000000, 0.000000, 0.000000, 1.000000, 203.589752, 1545658603.957590, 4.000000, 4.000000, 4.000000, 4.000000, 4.000000, 4.000000, 4.000000, 4.000000, 4.000000, 4.000000, 4.000000, 4.000000, 4.000000, 4.000000, 4.000000, 4.000000
92.000000, 0.000000, 4237.948730, 4175.384277, 4210.769043, 4191.281738, 4194.871582, 4197.948730, 4206.666504, 4206.153809, 4226.153809, 4232.307617, 4240.512695, 4238.974121, 4272.307617, 4266.666504, 3520.000000, 8375.000000, 8170.000000, 0.000000, 0.000000, 0.000000, 1.000000, 211.282059, 1545658603.965282, 4.000000, 4.000000, 4.000000, 4.000000, 4.000000, 4.000000, 4.000000, 4.000000, 4.000000, 4.000000, 4.000000, 4.000000, 4.000000, 4.000000, 4.000000, 4.000000
93.000000, 0.000000, 4245.641113, 4181.538574, 4216.922852, 4196.922852, 4202.051270, 4203.076660, 4217.436035, 4216.922852, 4234.358887, 4238.461426, 4249.743652, 4250.256348, 4280.512695, 4268.717773, 3156.000000, 8375.000000, 8185.000000, 0.000000, 0.000000, 0.000000, 1.000000, 218.974365, 1545658603.972974, 4.000000, 4.000000, 4.000000, 4.000000, 4.000000, 4.000000, 4.000000, 4.000000, 4.000000, 4.000000, 4.000000, 4.000000, 4.000000, 4.000000, 4.000000, 4.000000
94.000000, 0.000000, 4240.512695, 4173.846191, 4221.538574, 4198.461426, 4200.512695, 4203.589844, 4208.717773, 4212.307617, 4228.717773, 4237.948730, 4254.358887, 4250.256348, 4283.076660, 4268.717773, 3550.000000, 8375.000000, 8185.000000, 0.000000, 0.000000, 0.000000, 1.000000, 226.666672, 1545658603.980667, 4.000000, 4.000000, 4.000000, 4.000000, 4.000000, 4.000000, 4.000000, 4.000000, 4.000000, 4.000000, 4.000000, 4.000000, 4.000000, 4.000000, 4.000000, 4.000000
95.000000, 0.000000, 4231.281738, 4163.076660, 4212.307617, 4191.794922, 4191.281738, 4193.846191, 4194.358887, 4194.358887, 4213.333008, 4226.153809, 4242.051270, 4235.384277, 4269.743652, 4260.000000, 3247.000000, 8372.000000, 8192.000000, 0.000000, 0.000000, 0.000000, 1.000000, 234.358978, 1545658603.988359, 4.000000, 4.000000, 4.000000, 4.000000, 4.000000, 4.000000, 4.000000, 4.000000, 4.000000, 4.000000, 4.000000, 4.000000, 4.000000, 4.000000, 4.000000, 4.000000
96.000000, 0.000000, 4230.769043, 4165.641113, 4200.512695, 4185.127930, 4187.692383, 4189.230469, 4197.436035, 4187.692383, 4205.641113, 4216.410156, 4224.615234, 4225.641113, 4251.794922, 4248.205078, 3520.000000, 8372.000000, 8192.000000, 0.000000, 0.000000, 0.000000, 1.000000, 242.051285, 1545658603.996051, 4.000000, 4.000000, 4.000000, 4.000000, 4.000000, 4.000000, 4.000000, 4.000000, 4.000000, 4.000000, 4.000000, 4.000000, 4.000000, 4.000000, 4.000000, 4.000000
97.000000, 0.000000, 4232.820313, 4172.820313, 4204.102539, 4189.743652, 4194.358887, 4196.410156, 4202.051270, 4194.358887, 4210.256348, 4218.974121, 4223.076660, 4229.230469, 4254.358887, 4251.281738, 3156.000000, 8361.000000, 8201.000000, 0.000000, 0.000000, 0.000000, 1.000000, 250.256409, 1545658604.004256, 4.000000, 4.000000, 4.000000, 4.000000, 4.000000, 4.000000, 4.000000, 4.000000, 4.000000, 4.000000, 4.000000, 4.000000, 4.000000, 4.000000, 4.000000, 4.000000
98.000000, 0.000000, 4234.358887, 4174.871582, 4209.743652, 4195.384277, 4197.436035, 4198.461426, 4195.897461, 4201.025391, 4217.948730, 4222.051270, 4230.769043, 4230.769043, 4261.538574, 4259.487305, 3550.000000, 8361.000000, 8201.000000, 0.000000, 0.000000, 0.000000, 1.000000, 257.948715, 1545658604.011949, 4.000000, 4.000000, 4.000000, 4.000000, 4.000000, 4.000000, 4.000000, 4.000000, 4.000000, 4.000000, 4.000000, 4.000000, 4.000000, 4.000000, 4.000000, 4.000000
99.000000, 0.000000, 4237.436035, 4169.743652, 4203.589844, 4188.205078, 4188.205078, 4187.692383, 4186.666504, 4202.563965, 4218.461426, 4219.487305, 4233.846191, 4225.127930, 4258.974121, 4256.922852, 3247.000000, 8352.000000, 8208.000000, 0.000000, 0.000000, 0.000000, 1.000000, 265.641022, 1545658604.019641, 4.000000, 4.000000, 4.000000, 4.000000, 4.000000, 4.000000, 4.000000, 4.000000, 4.000000, 4.000000, 4.000000, 4.000000, 4.000000, 4.000000, 4.000000, 4.000000
100.000000, 0.000000, 4240.512695, 4167.179199, 4204.615234, 4186.666504, 4183.589844, 4184.615234, 4192.820313, 4207.179199, 4221.538574, 4223.589844, 4235.384277, 4225.127930, 4260.000000, 4253.846191, 3520.000000, 8352.000000, 8208.000000, 0.000000, 0.000000, 0.000000, 1.000000, 273.846161, 1545658604.027846, 4.000000, 4.000000, 4.000000, 4.000000, 4.000000, 4.000000, 4.000000, 4.000000, 4.000000, 4.000000, 4.000000, 4.000000, 4.000000, 4.000000, 4.000000, 4.000000
101.000000, 0.000000, 4250.769043, 4184.615234, 4220.000000, 4202.563965, 4197.948730, 4202.563965, 4214.871582, 4220.512695, 4235.384277, 4235.384277, 4250.256348, 4234.358887, 4273.333008, 4264.615234, 3156.000000, 8333.000000, 8209.000000, 0.000000, 0.000000, 0.000000, 1.000000, 281.538452, 1545658604.035538, 4.000000, 4.000000, 4.000000, 4.000000, 4.000000, 4.000000, 4.000000, 4.000000, 4.000000, 4.000000, 4.000000, 4.000000, 4.000000, 4.000000, 4.000000, 4.000000
102.000000, 0.000000, 4258.974121, 4196.922852, 4224.102539, 4207.692383, 4205.127930, 4214.871582, 4223.076660, 4221.025391, 4238.461426, 4236.922852, 4260.512695, 4241.025391, 4276.922852, 4274.358887, 3550.000000, 8333.000000, 8209.000000, 0.000000, 0.000000, 0.000000, 1.000000, 289.230774, 1545658604.043231, 4.000000, 4.000000, 4.000000, 4.000000, 4.000000, 4.000000, 4.000000, 4.000000, 4.000000, 4.000000, 4.000000, 4.000000, 4.000000, 4.000000, 4.000000, 4.000000
103.000000, 0.000000, 4254.871582, 4187.692383, 4216.410156, 4199.487305, 4197.436035, 4210.769043, 4215.897461, 4207.692383, 4225.641113, 4229.230469, 4251.794922, 4235.897461, 4265.127930, 4268.717773, 3247.000000, 8324.000000, 8217.000000, 0.000000, 0.000000, 0.000000, 1.000000, 296.923065, 1545658604.050923, 4.000000, 4.000000, 4.000000, 4.000000, 4.000000, 4.000000, 4.000000, 4.000000, 4.000000, 4.000000, 4.000000, 4.000000, 4.000000, 4.000000, 4.000000, 4.000000
104.000000, 0.000000, 4245.127930, 4179.487305, 4210.256348, 4199.487305, 4192.820313, 4205.641113, 4210.256348, 4203.076660, 4219.487305, 4224.102539, 4236.922852, 4223.076660, 4252.307617, 4257.436035, 3520.000000, 8324.000000, 8217.000000, 0.000000, 0.000000, 0.000000, 1.000000, 304.615387, 1545658604.058615, 4.000000, 4.000000, 4.000000, 4.000000, 4.000000, 4.000000, 4.000000, 4.000000, 4.000000, 4.000000, 4.000000, 4.000000, 4.000000, 4.000000, 4.000000, 4.000000
105.000000, 0.000000, 4233.333008, 4173.846191, 4200.512695, 4193.846191, 4186.666504, 4197.948730, 4202.563965, 4200.512695, 4213.846191, 4215.897461, 4229.230469, 4213.846191, 4238.974121, 4246.666504, 3156.000000, 8310.000000, 8245.000000, 0.000000, 0.000000, 0.000000, 1.000000, 312.307678, 1545658604.066308, 4.000000, 4.000000, 4.000000, 4.000000, 4.000000, 4.000000, 4.000000, 4.000000, 4.000000, 4.000000, 4.000000, 4.000000, 4.000000, 4.000000, 4.000000, 4.000000
106.000000, 0.000000, 4228.205078, 4171.281738, 4194.871582, 4185.127930, 4184.102539, 4194.871582, 4197.436035, 4198.974121, 4209.743652, 4212.307617, 4228.205078, 4214.358887, 4229.743652, 4244.102539, 3550.000000, 8310.000000, 8245.000000, 0.000000, 0.000000, 0.000000, 1.000000, 320.000000, 1545658604.074000, 4.000000, 4.000000, 4.000000, 4.000000, 4.000000, 4.000000, 4.000000, 4.000000, 4.000000, 4.000000, 4.000000, 4.000000, 4.000000, 4.000000, 4.000000, 4.000000
107.000000, 0.000000, 4241.025391, 4178.974121, 4204.102539, 4191.281738, 4192.820313, 4202.051270, 4204.102539, 4204.102539, 4220.512695, 4220.000000, 4231.794922, 4218.461426, 4232.307617, 4251.794922, 3247.000000, 8304.000000, 8258.000000, 0.000000, 0.000000, 0.000000, 1.000000, 328.205139, 1545658604.082205, 4.000000, 4.000000, 4.000000, 4.000000, 4.000000, 4.000000, 4.000000, 4.000000, 4.000000, 4.000000, 4.000000, 4.000000, 4.000000, 4.000000, 4.000000, 4.000000
108.000000, 0.000000, 4246.153809, 4184.102539, 4209.743652, 4197.436035, 4195.384277, 4198.461426, 4200.000000, 4204.102539, 4223.589844, 4222.051270, 4239.487305, 4218.461426, 4237.436035, 4255.897461, 3520.000000, 8304.000000, 8258.000000, 0.000000, 0.000000, 0.000000, 1.000000, 335.897430, 1545658604.089897, 4.000000, 4.000000, 4.000000, 4.000000, 4.000000, 4.000000, 4.000000, 4.000000, 4.000000, 4.000000, 4.000000, 4.000000, 4.000000, 4.000000, 4.000000, 4.000000
109.000000, 0.000000, 4236.922852, 4183.589844, 4203.589844, 4194.358887, 4188.205078, 4188.205078, 4190.256348, 4200.000000, 4212.820313, 4215.897461, 4240.000000, 4215.384277, 4232.820313, 4251.794922, 3156.000000, 8299.000000, 8288.000000, 0.000000, 0.000000, 0.000000, 1.000000, 344.102570, 1545658604.098103, 4.000000, 4.000000, 4.000000, 4.000000, 4.000000, 4.000000, 4.000000, 4.000000, 4.000000, 4.000000, 4.000000, 4.000000, 4.000000, 4.000000, 4.000000, 4.000000
110.000000, 0.000000, 4235.897461, 4186.153809, 4200.512695, 4196.410156, 4186.153809, 4189.230469, 4189.743652, 4197.436035, 4207.692383, 4212.820313, 4232.307617, 4213.846191, 4223.076660, 4253.333008, 3550.000000, 8299.000000, 8288.000000, 0.000000, 0.000000, 0.000000, 1.000000, 351.794861, 1545658604.105795, 4.000000, 4.000000, 4.000000, 4.000000, 4.000000, 4.000000, 4.000000, 4.000000, 4.000000, 4.000000, 4.000000, 4.000000, 4.000000, 4.000000, 4.000000, 4.000000
111.000000, 0.000000, 4240.512695, 4182.051270, 4202.051270, 4200.000000, 4184.615234, 4189.743652, 4190.256348, 4190.769043, 4208.205078, 4213.846191, 4230.769043, 4210.256348, 4218.974121, 4260.512695, 3247.000000, 8301.000000, 8298.000000, 0.000000, 0.000000, 0.000000, 1.000000, 360.000000, 1545658604.114000, 4.000000, 4.000000, 4.000000, 4.000000, 4.000000, 4.000000, 4.000000, 4.000000, 4.000000, 4.000000, 4.000000, 4.000000, 4.000000, 4.000000, 4.000000, 4.000000
112.000000, 0.000000, 4243.589844, 4176.410156, 4201.538574, 4195.897461, 4183.589844, 4185.641113, 4193.333008, 4191.794922, 4208.717773, 4216.922852, 4237.436035, 4210.769043, 4219.487305, 4263.589844, 3520.000000, 8301.000000, 8298.000000, 0.000000, 0.000000, 0.000000, 1.000000, 367.692291, 1545658604.121692, 4.000000, 4.000000, 4.000000, 4.000000, 4.000000, 4.000000, 4.000000, 4.000000, 4.000000, 4.000000, 4.000000, 4.000000, 4.000000, 4.000000, 4.000000, 4.000000
113.000000, 0.000000, 4250.256348, 4182.051270, 4207.692383, 4195.384277, 4188.717773, 4193.846191, 4203.589844, 4207.692383, 4218.461426, 4221.538574, 4241.025391, 4218.461426, 4225.641113, 4270.769043, 3156.000000, 8299.000000, 8302.000000, 0.000000, 0.000000, 0.000000, 1.000000, 375.897430, 1545658604.129897, 4.000000, 4.000000, 4.000000, 4.000000, 4.000000, 4.000000, 4.000000, 4.000000, 4.000000, 4.000000, 4.000000, 4.000000, 4.000000, 4.000000, 4.000000, 4.000000
114.000000, 0.000000, 4260.000000, 4192.820313, 4220.512695, 4206.153809, 4200.000000, 4207.692383, 4214.871582, 4222.051270, 4234.871582, 4229.230469, 4249.743652, 4226.153809, 4235.897461, 4286.153809, 3550.000000, 8299.000000, 8302.000000, 0.000000, 0.000000, 0.000000, 1.000000, 383.589752, 1545658604.137590, 4.000000, 4.000000, 4.000000, 4.000000, 4.000000, 4.000000, 4.000000, 4.000000, 4.000000, 4.000000, 4.000000, 4.000000, 4.000000, 4.000000, 4.000000, 4.000000
115.000000, 0.000000, 4257.948730, 4193.846191, 4217.948730, 4205.127930, 4200.512695, 4205.641113, 4213.846191, 4215.897461, 4235.384277, 4226.666504, 4250.769043, 4223.076660, 4230.769043, 4288.205078, 3247.000000, 8304.000000, 8299.000000, 0.000000, 0.000000, 0.000000, 1.000000, 391.794861, 1545658604.145795, 4.000000, 4.000000, 4.000000, 4.000000, 4.000000, 4.000000, 4.000000, 4.000000, 4.000000, 4.000000, 4.000000, 4.000000, 4.000000, 4.000000, 4.000000, 4.000000
116.000000, 0.000000, 4248.717773, 4183.076660, 4204.615234, 4191.794922, 4188.717773, 4194.871582, 4204.102539, 4201.025391, 4218.974121, 4214.358887, 4234.358887, 4210.769043, 4212.307617, 4274.871582, 3520.000000, 8304.000000, 8299.000000, 0.000000, 0.000000, 0.000000, 1.000000, 399.487183, 1545658604.153487, 4.000000, 4.000000, 4.000000, 4.000000, 4.000000, 4.000000, 4.000000, 4.000000, 4.000000, 4.000000, 4.000000, 4.000000, 4.000000, 4.000000, 4.000000, 4.000000
117.000000, 0.000000, 4250.769043, 4179.487305, 4201.025391, 4191.281738, 4187.692383, 4195.384277, 4206.666504, 4202.563965, 4216.922852, 4214.358887, 4227.692383, 4209.230469, 4209.743652, 4274.358887, 3156.000000, 8300.000000, 8289.000000, 0.000000, 0.000000, 0.000000, 1.000000, 407.179474, 1545658604.161180, 4.000000, 4.000000, 4.000000, 4.000000, 4.000000, 4.000000, 4.000000, 4.000000, 4.000000, 4.000000, 4.000000, 4.000000, 4.000000, 4.000000, 4.000000, 4.000000
118.000000, 0.000000, 4253.333008, 4185.641113, 4201.538574, 4197.948730, 4194.871582, 4197.948730, 4211.281738, 4210.256348, 4226.153809, 4217.948730, 4230.769043, 4212.820313, 4213.846191, 4278.461426, 3550.000000, 8300.000000, 8289.000000, 0.000000, 0.000000, 0.000000, 1.000000, 415.384613, 1545658604.169384, 4.000000, 4.000000, 4.000000, 4.000000, 4.000000, 4.000000, 4.000000, 4.000000, 4.000000, 4.000000, 4.000000, 4.000000, 4.000000, 4.000000, 4.000000, 4.000000
119.000000, 0.000000, 4249.743652, 4189.230469, 4198.974121, 4197.948730, 4194.358887, 4197.948730, 4206.666504, 4206.153809, 4221.538574, 4211.281738, 4232.307617, 4207.692383, 4208.205078, 4273.846191, 3247.000000, 8300.000000, 8287.000000, 0.000000, 0.000000, 0.000000, 1.000000, 423.076904, 1545658604.177077, 4.000000, 4.000000, 4.000000, 4.000000, 4.000000, 4.000000, 4.000000, 4.000000, 4.000000, 4.000000, 4.000000, 4.000000, 4.000000, 4.000000, 4.000000, 4.000000
120.000000, 0.000000, 4249.230469, 4187.179199, 4196.410156, 4194.871582, 4189.743652, 4195.897461, 4196.410156, 4196.410156, 4207.179199, 4204.102539, 4227.692383, 4198.461426, 4196.410156, 4269.743652, 3520.000000, 8300.000000, 8287.000000, 0.000000, 0.000000, 0.000000, 1.000000, 431.282043, 1545658604.185282, 4.000000, 4.000000, 4.000000, 4.000000, 4.000000, 4.000000, 4.000000, 4.000000, 4.000000, 4.000000, 4.000000, 4.000000, 4.000000, 4.000000, 4.000000, 4.000000
121.000000, 0.000000, 4261.025391, 4196.410156, 4198.974121, 4202.051270, 4198.461426, 4196.410156, 4198.974121, 4198.461426, 4209.230469, 4210.769043, 4229.743652, 4200.000000, 4197.948730, 4277.436035, 3156.000000, 8306.000000, 8290.000000, 0.000000, 0.000000, 0.000000, 1.000000, 438.974365, 1545658604.192974, 4.000000, 4.000000, 4.000000, 4.000000, 4.000000, 4.000000, 4.000000, 4.000000, 4.000000, 4.000000, 4.000000, 4.000000, 4.000000, 4.000000, 4.000000, 4.000000
122.000000, 0.000000, 4268.205078, 4201.538574, 4204.102539, 4209.230469, 4207.179199, 4206.666504, 4209.230469, 4209.743652, 4226.666504, 4220.512695, 4242.051270, 4211.794922, 4213.333008, 4285.641113, 3550.000000, 8306.000000, 8290.000000, 0.000000, 0.000000, 0.000000, 1.000000, 447.179474, 1545658604.201180, 4.000000, 4.000000, 4.000000, 4.000000, 4.000000, 4.000000, 4.000000, 4.000000, 4.000000, 4.000000, 4.000000, 4.000000, 4.000000, 4.000000, 4.000000, 4.000000
123.000000, 0.000000, 4260.512695, 4185.641113, 4201.025391, 4200.000000, 4198.461426, 4210.769043, 4205.641113, 4208.717773, 4228.717773, 4217.436035, 4243.589844, 4211.281738, 4210.256348, 4278.461426, 3247.000000, 8307.000000, 8299.000000, 0.000000, 0.000000, 0.000000, 1.000000, 454.871796, 1545658604.208872, 4.000000, 4.000000, 4.000000, 4.000000, 4.000000, 4.000000, 4.000000, 4.000000, 4.000000, 4.000000, 4.000000, 4.000000, 4.000000, 4.000000, 4.000000, 4.000000
124.000000, 0.000000, 4260.000000, 4187.692383, 4200.512695, 4194.358887, 4195.897461, 4203.589844, 4201.538574, 4204.102539, 4220.000000, 4215.384277, 4232.820313, 4204.102539, 4192.307617, 4275.897461, 3520.000000, 8307.000000, 8299.000000, 0.000000, 0.000000, 0.000000, 1.000000, 463.076904, 1545658604.217077, 4.000000, 4.000000, 4.000000, 4.000000, 4.000000, 4.000000, 4.000000, 4.000000, 4.000000, 4.000000, 4.000000, 4.000000, 4.000000, 4.000000, 4.000000, 4.000000
125.000000, 0.000000, 4270.256348, 4211.281738, 4209.230469, 4205.127930, 4202.563965, 4197.436035, 4207.179199, 4207.692383, 4217.436035, 4215.897461, 4229.743652, 4205.641113, 4188.717773, 4283.589844, 3156.000000, 8312.000000, 8303.000000, 0.000000, 0.000000, 0.000000, 1.000000, 470.769226, 1545658604.224769, 4.000000, 4.000000, 4.000000, 4.000000, 4.000000, 4.000000, 4.000000, 4.000000, 4.000000, 4.000000, 4.000000, 4.000000, 4.000000, 4.000000, 4.000000, 4.000000
126.000000, 0.000000, 4274.358887, 4220.512695, 4213.333008, 4213.846191, 4203.589844, 4202.051270, 4211.281738, 4209.230469, 4215.384277, 4210.769043, 4230.769043, 4209.743652, 4188.205078, 4285.127930, 3550.000000, 8312.000000, 8303.000000, 0.000000, 0.000000, 0.000000, 1.000000, 478.974365, 1545658604.232974, 4.000000, 4.000000, 4.000000, 4.000000, 4.000000, 4.000000, 4.000000, 4.000000, 4.000000, 4.000000, 4.000000, 4.000000, 4.000000, 4.000000, 4.000000, 4.000000
127.000000, 0.000000, 4274.871582, 4218.974121, 4210.256348, 4212.820313, 4201.538574, 4205.127930, 4208.717773, 4202.051270, 4210.769043, 4208.717773, 4222.563965, 4206.153809, 4174.871582, 4283.076660, 56.000000, 8313.000000, 8292.000000, 0.000000, 0.000000, 0.000000, 1.000000, 486.666656, 1545658604.240667, 4.000000, 4.000000, 4.000000, 4.000000, 4.000000, 4.000000, 4.000000, 4.000000, 4.000000, 4.000000, 4.000000, 4.000000, 4.000000, 4.000000, 4.000000, 4.000000
0.000000, 0.000000, 4273.333008, 4227.692383, 4210.769043, 4214.358887, 4202.051270, 4202.051270, 4207.692383, 4200.512695, 4207.692383, 4207.692383, 4214.358887, 4199.487305, 4162.563965, 4285.127930, 3332.000000, 8313.000000, 8292.000000, 0.000000, 0.000000, 0.000000, 1.000000, 494.871796, 1545658604.248872, 4.000000, 4.000000, 4.000000, 4.000000, 4.000000, 4.000000, 4.000000, 4.000000, 4.000000, 4.000000, 4.000000, 4.000000, 4.000000, 4.000000, 4.000000, 4.000000
1.000000, 0.000000, 4272.307617, 4236.410156, 4217.436035, 4219.487305, 4205.641113, 4203.076660, 4208.205078, 4205.641113, 4213.846191, 4207.692383, 4220.000000, 4205.127930, 4163.076660, 4290.769043, 3515.000000, 8317.000000, 8260.000000, 0.000000, 0.000000, 0.000000, 1.000000, 502.564087, 1545658604.256564, 4.000000, 4.000000, 4.000000, 4.000000, 4.000000, 4.000000, 4.000000, 4.000000, 4.000000, 4.000000, 4.000000, 4.000000, 4.000000, 4.000000, 4.000000, 4.000000
2.000000, 0.000000, 4272.820313, 4231.281738, 4216.410156, 4217.948730, 4204.615234, 4198.974121, 4200.512695, 4203.589844, 4215.897461, 4208.717773, 4224.615234, 4210.769043, 4160.512695, 4293.846191, 3303.000000, 8317.000000, 8260.000000, 0.000000, 0.000000, 0.000000, 1.000000, 510.769226, 1545658604.264769, 4.000000, 4.000000, 4.000000, 4.000000, 4.000000, 4.000000, 4.000000, 4.000000, 4.000000, 4.000000, 4.000000, 4.000000, 4.000000, 4.000000, 4.000000, 4.000000
3.000000, 0.000000, 4269.743652, 4225.641113, 4206.666504, 4213.846191, 4203.076660, 4195.384277, 4197.948730, 4202.563965, 4208.717773, 4207.179199, 4219.487305, 4202.563965, 4153.846191, 4289.230469, 3573.000000, 8317.000000, 8249.000000, 0.000000, 0.000000, 0.000000, 1.000000, 518.461517, 1545658604.272461, 4.000000, 4.000000, 4.000000, 4.000000, 4.000000, 4.000000, 4.000000, 4.000000, 4.000000, 4.000000, 4.000000, 4.000000, 4.000000, 4.000000, 4.000000, 4.000000
4.000000, 0.000000, 4265.641113, 4230.769043, 4201.538574, 4216.410156, 4211.281738, 4206.666504, 4209.230469, 4204.615234, 4210.256348, 4209.743652, 4216.922852, 4197.948730, 4154.358887, 4282.051270, 3399.000000, 8317.000000, 8249.000000, 0.000000, 0.000000, 0.000000, 1.000000, 526.153839, 1545658604.280154, 4.000000, 4.000000, 4.000000, 4.000000, 4.000000, 4.000000, 4.000000, 4.000000, 4.000000, 4.000000, 4.000000, 4.000000, 4.000000, 4.000000, 4.000000, 4.000000
5.000000, 0.000000, 4265.127930, 4230.769043, 4200.512695, 4216.410156, 4213.846191, 4212.307617, 4209.743652, 4201.538574, 4214.358887, 4208.205078, 4219.487305, 4198.461426, 4158.461426, 4280.000000, 3489.000000, 8318.000000, 8254.000000, 0.000000, 0.000000, 0.000000, 1.000000, 534.358948, 1545658604.288359, 4.000000, 4.000000, 4.000000, 4.000000, 4.000000, 4.000000, 4.000000, 4.000000, 4.000000, 4.000000, 4.000000, 4.000000, 4.000000, 4.000000, 4.000000, 4.000000
6.000000, 0.000000, 4267.179199, 4225.641113, 4201.538574, 4214.358887, 4209.743652, 4206.666504, 4205.127930, 4201.538574, 4211.794922, 4203.589844, 4221.025391, 4195.384277, 4164.615234, 4283.589844, 3413.000000, 8318.000000, 8254.000000, 0.000000, 0.000000, 0.000000, 1.000000, 542.051270, 1545658604.296051, 4.000000, 4.000000, 4.000000, 4.000000, 4.000000, 4.000000, 4.000000, 4.000000, 4.000000, 4.000000, 4.000000, 4.000000, 4.000000, 4.000000, 4.000000, 4.000000
7.000000, 0.000000, 4265.127930, 4227.692383, 4202.051270, 4215.384277, 4210.256348, 4206.666504, 4207.692383, 4207.179199, 4210.256348, 4205.641113, 4218.974121, 4194.358887, 4176.922852, 4281.538574, 3238.000000, 8317.000000, 8260.000000, 0.000000, 0.000000, 0.000000, 1.000000, 550.256409, 1545658604.304256, 4.000000, 4.000000, 4.000000, 4.000000, 4.000000, 4.000000, 4.000000, 4.000000, 4.000000, 4.000000, 4.000000, 4.000000, 4.000000, 4.000000, 4.000000, 4.000000
8.000000, 0.000000, 4257.436035, 4220.512695, 4195.897461, 4205.641113, 4202.051270, 4201.025391, 4204.102539, 4207.179199, 4210.256348, 4203.589844, 4209.230469, 4192.820313, 4193.333008, 4273.846191, 3428.000000, 8317.000000, 8260.000000, 0.000000, 0.000000, 0.000000, 1.000000, 557.948730, 1545658604.311949, 4.000000, 4.000000, 4.000000, 4.000000, 4.000000, 4.000000, 4.000000, 4.000000, 4.000000, 4.000000, 4.000000, 4.000000, 4.000000, 4.000000, 4.000000, 4.000000
9.000000, 0.000000, 4251.281738, 4204.615234, 4190.769043, 4192.307617, 4188.717773, 4189.230469, 4195.384277, 4207.692383, 4208.205078, 4195.897461, 4204.102539, 4187.692383, 4211.281738, 4267.179199, 3245.000000, 8310.000000, 8274.000000, 0.000000, 0.000000, 0.000000, 1.000000, 566.153809, 1545658604.320154, 4.000000, 4.000000, 4.000000, 4.000000, 4.000000, 4.000000, 4.000000, 4.000000, 4.000000, 4.000000, 4.000000, 4.000000, 4.000000, 4.000000, 4.000000, 4.000000
10.000000, 0.000000, 4250.769043, 4199.487305, 4194.871582, 4193.846191, 4188.717773, 4188.717773, 4197.436035, 4210.256348, 4204.102539, 4196.410156, 4207.179199, 4185.127930, 4230.769043, 4263.589844, 3547.000000, 8310.000000, 8274.000000, 0.000000, 0.000000, 0.000000, 1.000000, 573.846130, 1545658604.327846, 4.000000, 4.000000, 4.000000, 4.000000, 4.000000, 4.000000, 4.000000, 4.000000, 4.000000, 4.000000, 4.000000, 4.000000, 4.000000, 4.000000, 4.000000, 4.000000
11.000000, 0.000000, 4254.358887, 4207.179199, 4205.127930, 4202.563965, 4193.333008, 4194.871582, 4205.127930, 4211.281738, 4206.666504, 4207.179199, 4211.794922, 4194.871582, 4255.384277, 4267.179199, 3241.000000, 8302.000000, 8268.000000, 0.000000, 0.000000, 0.000000, 1.000000, 582.051270, 1545658604.336051, 4.000000, 4.000000, 4.000000, 4.000000, 4.000000, 4.000000, 4.000000, 4.000000, 4.000000, 4.000000, 4.000000, 4.000000, 4.000000, 4.000000, 4.000000, 4.000000
12.000000, 0.000000, 4255.384277, 4211.281738, 4206.666504, 4207.179199, 4192.820313, 4196.922852, 4204.102539, 4212.307617, 4213.333008, 4204.615234, 4214.358887, 4200.512695, 4272.820313, 4265.641113, 3515.000000, 8302.000000, 8268.000000, 0.000000, 0.000000, 0.000000, 1.000000, 589.743591, 1545658604.343744, 4.000000, 4.000000, 4.000000, 4.000000, 4.000000, 4.000000, 4.000000, 4.000000, 4.000000, 4.000000, 4.000000, 4.000000, 4.000000, 4.000000, 4.000000, 4.000000
13.000000, 0.000000, 4251.281738, 4209.743652, 4203.076660, 4206.153809, 4196.410156, 4196.922852, 4200.000000, 4208.717773, 4212.307617, 4195.897461, 4210.769043, 4193.333008, 4275.384277, 4254.358887, 3156.000000, 8286.000000, 8253.000000, 0.000000, 0.000000, 0.000000, 1.000000, 597.948730, 1545658604.351949, 4.000000, 4.000000, 4.000000, 4.000000, 4.000000, 4.000000, 4.000000, 4.000000, 4.000000, 4.000000, 4.000000, 4.000000, 4.000000, 4.000000, 4.000000, 4.000000
14.000000, 0.000000, 4245.127930, 4205.127930, 4201.025391, 4195.897461, 4193.846191, 4192.307617, 4193.846191, 4195.384277, 4197.948730, 4189.743652, 4197.948730, 4184.102539, 4270.769043, 4240.512695, 3547.000000, 8286.000000, 8253.000000, 0.000000, 0.000000, 0.000000, 1.000000, 605.640991, 1545658604.359641, 4.000000, 4.000000, 4.000000, 4.000000, 4.000000, 4.000000, 4.000000, 4.000000, 4.000000, 4.000000, 4.000000, 4.000000, 4.000000, 4.000000, 4.000000, 4.000000
15.000000, 0.000000, 4237.948730, 4192.820313, 4194.871582, 4182.051270, 4179.487305, 4181.538574, 4182.051270, 4184.615234, 4182.563965, 4177.436035, 4187.692383, 4183.076660, 4262.051270, 4232.820313, 3241.000000, 8278.000000, 8244.000000, 0.000000, 0.000000, 0.000000, 1.000000, 613.846130, 1545658604.367846, 4.000000, 4.000000, 4.000000, 4.000000, 4.000000, 4.000000, 4.000000, 4.000000, 4.000000, 4.000000, 4.000000, 4.000000, 4.000000, 4.000000, 4.000000, 4.000000
16.000000, 0.000000, 4232.820313, 4182.563965, 4188.717773, 4183.589844, 4173.846191, 4175.897461, 4173.846191, 4182.051270, 4181.538574, 4170.769043, 4187.179199, 4180.512695, 4253.846191, 4232.820313, 0.000000, 8278.000000, 8244.000000, 0.000000, 0.000000, 0.000000, 1.000000, 621.538452, 1545658604.375539, 4.000000, 4.000000, 4.000000, 4.000000, 4.000000, 4.000000, 4.000000, 4.000000, 4.000000, 4.000000, 4.000000, 4.000000, 4.000000, 4.000000, 4.000000, 4.000000
17.000000, 0.000000, 4236.922852, 4188.205078, 4192.307617, 4191.281738, 4178.461426, 4177.948730, 4176.410156, 4185.127930, 4188.205078, 4178.974121, 4186.666504, 4175.384277, 4251.794922, 4232.307617, 0.000000, 8263.000000, 8197.000000, 0.000000, 0.000000, 0.000000, 1.000000, 629.743591, 1545658604.383744, 4.000000, 4.000000, 4.000000, 4.000000, 4.000000, 4.000000, 4.000000, 4.000000, 4.000000, 4.000000, 4.000000, 4.000000, 4.000000, 4.000000, 4.000000, 4.000000
18.000000, 0.000000, 4248.205078, 4205.127930, 4204.615234, 4199.487305, 4187.179199, 4185.641113, 4184.615234, 4193.846191, 4197.436035, 4193.333008, 4188.205078, 4181.538574, 4256.922852, 4230.769043, 0.000000, 8263.000000, 8197.000000, 0.000000, 0.000000, 0.000000, 1.000000, 637.435913, 1545658604.391436, 4.000000, 4.000000, 4.000000, 4.000000, 4.000000, 4.000000, 4.000000, 4.000000, 4.000000, 4.000000, 4.000000, 4.000000, 4.000000, 4.000000, 4.000000, 4.000000
19.000000, 0.000000, 4246.666504, 4211.794922, 4203.589844, 4207.179199, 4190.769043, 4184.615234, 4181.025391, 4196.410156, 4199.487305, 4192.307617, 4193.846191, 4183.076660, 4253.333008, 4230.256348, 0.000000, 8253.000000, 8192.000000, 0.000000, 0.000000, 0.000000, 1.000000, 645.128174, 1545658604.399128, 4.000000, 4.000000, 4.000000, 4.000000, 4.000000, 4.000000, 4.000000, 4.000000, 4.000000, 4.000000, 4.000000, 4.000000, 4.000000, 4.000000, 4.000000, 4.000000
20.000000, 0.000000, 4230.256348, 4196.410156, 4187.692383, 4195.897461, 4183.589844, 4171.794922, 4167.179199, 4180.512695, 4181.025391, 4176.922852, 4180.512695, 4168.717773, 4229.743652, 4218.974121, 0.000000, 8253.000000, 8192.000000, 0.000000, 0.000000, 0.000000, 1.000000, 653.333313, 1545658604.407333, 4.000000, 4.000000, 4.000000, 4.000000, 4.000000, 4.000000, 4.000000, 4.000000, 4.000000, 4.000000, 4.000000, 4.000000, 4.000000, 4.000000, 4.000000, 4.000000
21.000000, 0.000000, 4228.205078, 4188.205078, 4182.563965, 4184.102539, 4183.589844, 4169.743652, 4161.538574, 4169.743652, 4167.179199, 4170.769043, 4166.153809, 4164.102539, 4214.358887, 4205.127930, 0.000000, 8236.000000, 8184.000000, 0.000000, 0.000000, 0.000000, 1.000000, 661.025635, 1545658604.415026, 4.000000, 4.000000, 4.000000, 4.000000, 4.000000, 4.000000, 4.000000, 4.000000, 4.000000, 4.000000, 4.000000, 4.000000, 4.000000, 4.000000, 4.000000, 4.000000
22.000000, 0.000000, 4234.871582, 4196.410156, 4187.692383, 4191.794922, 4189.743652, 4173.333008, 4167.179199, 4176.922852, 4175.897461, 4176.410156, 4175.897461, 4171.794922, 4217.948730, 4209.230469, 0.000000, 8236.000000, 8184.000000, 0.000000, 0.000000, 0.000000, 1.000000, 669.230774, 1545658604.423231, 4.000000, 4.000000, 4.000000, 4.000000, 4.000000, 4.000000, 4.000000, 4.000000, 4.000000, 4.000000, 4.000000, 4.000000, 4.000000, 4.000000, 4.000000, 4.000000
23.000000, 0.000000, 4231.281738, 4195.897461, 4185.127930, 4194.871582, 4181.538574, 4167.692383, 4164.615234, 4176.922852, 4177.436035, 4170.769043, 4177.436035, 4167.179199, 4212.820313, 4210.769043, 0.000000, 8224.000000, 8197.000000, 0.000000, 0.000000, 0.000000, 1.000000, 676.923096, 1545658604.430923, 4.000000, 4.000000, 4.000000, 4.000000, 4.000000, 4.000000, 4.000000, 4.000000, 4.000000, 4.000000, 4.000000, 4.000000, 4.000000, 4.000000, 4.000000, 4.000000
24.000000, 0.000000, 4230.769043, 4191.281738, 4183.076660, 4192.307617, 4177.948730, 4167.692383, 4160.000000, 4174.358887, 4171.794922, 4168.205078, 4170.256348, 4162.563965, 4206.153809, 4205.127930, 0.000000, 8224.000000, 8197.000000, 0.000000, 0.000000, 0.000000, 1.000000, 685.128174, 1545658604.439128, 4.000000, 4.000000, 4.000000, 4.000000, 4.000000, 4.000000, 4.000000, 4.000000, 4.000000, 4.000000, 4.000000, 4.000000, 4.000000, 4.000000, 4.000000, 4.000000
25.000000, 0.000000, 4237.948730, 4198.461426, 4189.743652, 4195.897461, 4187.692383, 4176.922852, 4168.717773, 4183.589844, 4181.025391, 4181.538574, 4180.512695, 4171.794922, 4220.512695, 4207.692383, 0.000000, 8196.000000, 8229.000000, 0.000000, 0.000000, 0.000000, 1.000000, 692.820496, 1545658604.446820, 4.000000, 4.000000, 4.000000, 4.000000, 4.000000, 4.000000, 4.000000, 4.000000, 4.000000, 4.000000, 4.000000, 4.000000, 4.000000, 4.000000, 4.000000, 4.000000
26.000000, 0.000000, 4245.127930, 4209.743652, 4198.461426, 4202.051270, 4193.333008, 4188.717773, 4184.102539, 4192.307617, 4197.948730, 4194.358887, 4196.410156, 4178.974121, 4237.436035, 4215.897461, 0.000000, 8196.000000, 8229.000000, 0.000000, 0.000000, 0.000000, 1.000000, 701.025635, 1545658604.455026, 4.000000, 4.000000, 4.000000, 4.000000, 4.000000, 4.000000, 4.000000, 4.000000, 4.000000, 4.000000, 4.000000, 4.000000, 4.000000, 4.000000, 4.000000, 4.000000
27.000000, 0.000000, 4250.769043, 4215.384277, 4206.666504, 4213.333008, 4193.846191, 4196.922852, 4191.281738, 4196.410156, 4207.692383, 4198.461426, 4198.974121, 4180.512695, 4235.897461, 4222.051270, 0.000000, 8180.000000, 8244.000000, 0.000000, 0.000000, 0.000000, 1.000000, 708.717957, 1545658604.462718, 4.000000, 4.000000, 4.000000, 4.000000, 4.000000, 4.000000, 4.000000, 4.000000, 4.000000, 4.000000, 4.000000, 4.000000, 4.000000, 4.000000, 4.000000, 4.000000
28.000000, 0.000000, 4250.769043, 4217.948730, 4207.179199, 4224.615234, 4200.512695, 4201.538574, 4189.743652, 4201.538574, 4211.281738, 4202.051270, 4198.461426, 4184.102539, 4231.794922, 4224.615234, 0.000000, 8180.000000, 8244.000000, 0.000000, 0.000000, 0.000000, 1.000000, 716.923096, 1545658604.470923, 4.000000, 4.000000, 4.000000, 4.000000, 4.000000, 4.000000, 4.000000, 4.000000, 4.000000, 4.000000, 4.000000, 4.000000, 4.000000, 4.000000, 4.000000, 4.000000
29.000000, 0.000000, 4248.717773, 4221.025391, 4205.127930, 4223.076660, 4204.615234, 4204.615234, 4190.769043, 4208.717773, 4213.846191, 4207.692383, 4210.256348, 4187.179199, 4236.410156, 4227.692383, 0.000000, 8166.000000, 8263.000000, 0.000000, 0.000000, 0.000000, 1.000000, 724.615356, 1545658604.478616, 4.000000, 4.000000, 4.000000, 4.000000, 4.000000, 4.000000, 4.000000, 4.000000, 4.000000, 4.000000, 4.000000, 4.000000, 4.000000, 4.000000, 4.000000, 4.000000
30.000000, 0.000000, 4251.281738, 4221.538574, 4209.743652, 4220.000000, 4197.948730, 4201.025391, 4193.846191, 4205.127930, 4211.281738, 4209.230469, 4219.487305, 4188.717773, 4238.974121, 4227.179199, 0.000000, 8166.000000, 8263.000000, 0.000000, 0.000000, 0.000000, 1.000000, 732.820496, 1545658604.486820, 4.000000, 4.000000, 4.000000, 4.000000, 4.000000, 4.000000, 4.000000, 4.000000, 4.000000, 4.000000, 4.000000, 4.000000, 4.000000, 4.000000, 4.000000, 4.000000
31.000000, 0.000000, 4261.025391, 4231.281738, 4217.436035, 4231.794922, 4198.461426, 4200.512695, 4199.487305, 4206.153809, 4214.871582, 4215.384277, 4226.153809, 4196.922852, 4246.666504, 4232.820313, 0.000000, 8160.000000, 8265.000000, 0.000000, 0.000000, 0.000000, 1.000000, 740.512817, 1545658604.494513, 4.000000, 4.000000, 4.000000, 4.000000, 4.000000, 4.000000, 4.000000, 4.000000, 4.000000, 4.000000, 4.000000, 4.000000, 4.000000, 4.000000, 4.000000, 4.000000
32.000000, 0.000000, 4269.743652, 4245.641113, 4222.051270, 4242.051270, 4207.179199, 4209.230469, 4201.025391, 4212.307617, 4222.051270, 4220.000000, 4230.769043, 4204.615234, 4252.820313, 4240.512695, 0.000000, 8160.000000, 8265.000000, 0.000000, 0.000000, 0.000000, 1.000000, 748.717957, 1545658604.502718, 4.000000, 4.000000, 4.000000, 4.000000, 4.000000, 4.000000, 4.000000, 4.000000, 4.000000, 4.000000, 4.000000, 4.000000, 4.000000, 4.000000, 4.000000, 4.000000
33.000000, 0.000000, 4270.256348, 4245.641113, 4220.512695, 4240.512695, 4207.179199, 4211.281738, 4193.333008, 4206.153809, 4214.358887, 4210.256348, 4226.153809, 4201.538574, 4241.538574, 4236.410156, 0.000000, 8148.000000, 8272.000000, 0.000000, 0.000000, 0.000000, 1.000000, 756.410217, 1545658604.510410, 4.000000, 4.000000, 4.000000, 4.000000, 4.000000, 4.000000, 4.000000, 4.000000, 4.000000, 4.000000, 4.000000, 4.000000, 4.000000, 4.000000, 4.000000, 4.000000
34.000000, 0.000000, 4267.692383, 4237.436035, 4219.487305, 4234.358887, 4202.051270, 4204.102539, 4187.692383, 4195.384277, 4201.538574, 4204.102539, 4222.563965, 4196.922852, 4226.666504, 4227.692383, 0.000000, 8148.000000, 8272.000000, 0.000000, 0.000000, 0.000000, 1.000000, 764.102539, 1545658604.518103, 4.000000, 4.000000, 4.000000, 4.000000, 4.000000, 4.000000, 4.000000, 4.000000, 4.000000, 4.000000, 4.000000, 4.000000, 4.000000, 4.000000, 4.000000, 4.000000
35.000000, 0.000000, 4258.974121, 4230.769043, 4214.871582, 4223.589844, 4198.461426, 4198.461426, 4183.076660, 4184.102539, 4195.384277, 4199.487305, 4215.384277, 4190.769043, 4217.948730, 4220.512695, 0.000000, 8144.000000, 8284.000000, 0.000000, 0.000000, 0.000000, 1.000000, 772.307678, 1545658604.526308, 4.000000, 4.000000, 4.000000, 4.000000, 4.000000, 4.000000, 4.000000, 4.000000, 4.000000, 4.000000, 4.000000, 4.000000, 4.000000, 4.000000, 4.000000, 4.000000
36.000000, 0.000000, 4248.205078, 4227.692383, 4208.205078, 4219.487305, 4199.487305, 4199.487305, 4183.076660, 4182.563965, 4197.436035, 4189.743652, 4206.666504, 4181.538574, 4208.205078, 4218.461426, 0.000000, 8144.000000, 8284.000000, 0.000000, 0.000000, 0.000000, 1.000000, 780.000000, 1545658604.534000, 4.000000, 4.000000, 4.000000, 4.000000, 4.000000, 4.000000, 4.000000, 4.000000, 4.000000, 4.000000, 4.000000, 4.000000, 4.000000, 4.000000, 4.000000, 4.000000
37.000000, 0.000000, 4245.641113, 4228.205078, 4204.615234, 4220.000000, 4201.538574, 4201.025391, 4185.641113, 4193.846191, 4200.000000, 4188.717773, 4205.641113, 4180.000000, 4200.000000, 4217.436035, 0.000000, 8135.000000, 8292.000000, 0.000000, 0.000000, 0.000000, 1.000000, 788.205139, 1545658604.542205, 4.000000, 4.000000, 4.000000, 4.000000, 4.000000, 4.000000, 4.000000, 4.000000, 4.000000, 4.000000, 4.000000, 4.000000, 4.000000, 4.000000, 4.000000, 4.000000
38.000000, 0.000000, 4246.666504, 4229.743652, 4203.076660, 4216.922852, 4201.025391, 4199.487305, 4184.615234, 4198.461426, 4201.538574, 4198.461426, 4210.769043, 4184.102539, 4201.025391, 4215.384277, 0.000000, 8135.000000, 8292.000000, 0.000000, 0.000000, 0.000000, 1.000000, 795.897400, 1545658604.549897, 4.000000, 4.000000, 4.000000, 4.000000, 4.000000, 4.000000, 4.000000, 4.000000, 4.000000, 4.000000, 4.000000, 4.000000, 4.000000, 4.000000, 4.000000, 4.000000
39.000000, 0.000000, 4242.051270, 4227.692383, 4203.076660, 4218.461426, 4202.563965, 4198.974121, 4184.615234, 4189.743652, 4202.563965, 4197.436035, 4210.256348, 4184.615234, 4200.000000, 4210.769043, 0.000000, 8137.000000, 8300.000000, 0.000000, 0.000000, 0.000000, 1.000000, 804.102539, 1545658604.558103, 4.000000, 4.000000, 4.000000, 4.000000, 4.000000, 4.000000, 4.000000, 4.000000, 4.000000, 4.000000, 4.000000, 4.000000, 4.000000, 4.000000, 4.000000, 4.000000
40.000000, 0.000000, 4232.820313, 4218.974121, 4198.974121, 4216.922852, 4198.461426, 4197.436035, 4182.563965, 4180.512695, 4193.846191, 4184.102539, 4200.000000, 4175.384277, 4191.281738, 4201.538574, 0.000000, 8137.000000, 8300.000000, 0.000000, 0.000000, 0.000000, 1.000000, 811.794861, 1545658604.565795, 4.000000, 4.000000, 4.000000, 4.000000, 4.000000, 4.000000, 4.000000, 4.000000, 4.000000, 4.000000, 4.000000, 4.000000, 4.000000, 4.000000, 4.000000, 4.000000
41.000000, 0.000000, 4230.256348, 4216.922852, 4195.384277, 4208.717773, 4190.769043, 4194.358887, 4180.512695, 4182.563965, 4185.641113, 4183.589844, 4201.025391, 4171.794922, 4191.794922, 4198.974121, 0.000000, 8144.000000, 8325.000000, 0.000000, 0.000000, 0.000000, 1.000000, 820.000000, 1545658604.574000, 4.000000, 4.000000, 4.000000, 4.000000, 4.000000, 4.000000, 4.000000, 4.000000, 4.000000, 4.000000, 4.000000, 4.000000, 4.000000, 4.000000, 4.000000, 4.000000
42.000000, 0.000000, 4234.871582, 4220.512695, 4197.948730, 4208.205078, 4189.230469, 4192.820313, 4183.589844, 4188.717773, 4195.384277, 4192.820313, 4211.794922, 4178.974121, 4202.051270, 4203.589844, 0.000000, 8144.000000, 8325.000000, 0.000000, 0.000000, 0.000000, 1.000000, 827.692322, 1545658604.581692, 4.000000, 4.000000, 4.000000, 4.000000, 4.000000, 4.000000, 4.000000, 4.000000, 4.000000, 4.000000, 4.000000, 4.000000, 4.000000, 4.000000, 4.000000, 4.000000
43.000000, 0.000000, 4230.256348, 4211.794922, 4197.948730, 4206.153809, 4186.666504, 4189.743652, 4177.436035, 4187.692383, 4196.410156, 4185.127930, 4205.127930, 4177.436035, 4196.922852, 4199.487305, 0.000000, 8149.000000, 8346.000000, 0.000000, 0.000000, 0.000000, 1.000000, 835.897400, 1545658604.589897, 4.000000, 4.000000, 4.000000, 4.000000, 4.000000, 4.000000, 4.000000, 4.000000, 4.000000, 4.000000, 4.000000, 4.000000, 4.000000, 4.000000, 4.000000, 4.000000
44.000000, 0.000000, 4221.025391, 4206.666504, 4191.794922, 4202.563965, 4186.153809, 4189.230469, 4171.281738, 4184.615234, 4181.538574, 4171.281738, 4190.256348, 4170.256348, 4188.205078, 4191.794922, 0.000000, 8149.000000, 8346.000000, 0.000000, 0.000000, 0.000000, 1.000000, 843.589722, 1545658604.597590, 4.000000, 4.000000, 4.000000, 4.000000, 4.000000, 4.000000, 4.000000, 4.000000, 4.000000, 4.000000, 4.000000, 4.000000, 4.000000, 4.000000, 4.000000, 4.000000
45.000000, 0.000000, 4218.974121, 4213.846191, 4185.127930, 4203.589844, 4190.256348, 4195.897461, 4176.410156, 4184.615234, 4177.436035, 4174.358887, 4188.205078, 4167.692383, 4190.256348, 4188.205078, 0.000000, 8159.000000, 8378.000000, 0.000000, 0.000000, 0.000000, 1.000000, 851.794861, 1545658604.605795, 4.000000, 4.000000, 4.000000, 4.000000, 4.000000, 4.000000, 4.000000, 4.000000, 4.000000, 4.000000, 4.000000, 4.000000, 4.000000, 4.000000, 4.000000, 4.000000
46.000000, 0.000000, 4220.000000, 4214.358887, 4185.127930, 4205.127930, 4190.769043, 4197.948730, 4177.948730, 4182.563965, 4186.153809, 4182.563965, 4192.820313, 4166.153809, 4189.743652, 4185.641113, 0.000000, 8159.000000, 8378.000000, 0.000000, 0.000000, 0.000000, 1.000000, 859.487183, 1545658604.613487, 4.000000, 4.000000, 4.000000, 4.000000, 4.000000, 4.000000, 4.000000, 4.000000, 4.000000, 4.000000, 4.000000, 4.000000, 4.000000, 4.000000, 4.000000, 4.000000
47.000000, 0.000000, 4217.436035, 4205.127930, 4187.179199, 4203.076660, 4185.641113, 4189.230469, 4171.281738, 4181.025391, 4188.205078, 4177.436035, 4188.717773, 4164.615234, 4186.666504, 4185.127930, 0.000000, 8159.000000, 8387.000000, 0.000000, 0.000000, 0.000000, 1.000000, 867.692322, 1545658604.621692, 4.000000, 4.000000, 4.000000, 4.000000, 4.000000, 4.000000, 4.000000, 4.000000, 4.000000, 4.000000, 4.000000, 4.000000, 4.000000, 4.000000, 4.000000, 4.000000
48.000000, 0.000000, 4209.230469, 4197.436035, 4184.615234, 4201.025391, 4182.051270, 4184.102539, 4168.717773, 4180.000000, 4179.487305, 4172.307617, 4184.615234, 4162.051270, 4182.563965, 4183.589844, 0.000000, 8159.000000, 8387.000000, 0.000000, 0.000000, 0.000000, 1.000000, 875.384583, 1545658604.629385, 4.000000, 4.000000, 4.000000, 4.000000, 4.000000, 4.000000, 4.000000, 4.000000, 4.000000, 4.000000, 4.000000, 4.000000, 4.000000, 4.000000, 4.000000, 4.000000
49.000000, 0.000000, 4206.153809, 4204.615234, 4183.589844, 4202.051270, 4183.589844, 4187.179199, 4171.281738, 4178.461426, 4176.922852, 4174.358887, 4187.179199, 4157.948730, 4175.384277, 4177.436035, 0.000000, 8161.000000, 8412.000000, 0.000000, 0.000000, 0.000000, 1.000000, 883.076904, 1545658604.637077, 4.000000, 4.000000, 4.000000, 4.000000, 4.000000, 4.000000, 4.000000, 4.000000, 4.000000, 4.000000, 4.000000, 4.000000, 4.000000, 4.000000, 4.000000, 4.000000
50.000000, 0.000000, 4209.743652, 4213.333008, 4183.589844, 4200.000000, 4185.127930, 4188.205078, 4172.307617, 4175.897461, 4180.000000, 4170.769043, 4185.641113, 4155.897461, 4171.281738, 4176.410156, 0.000000, 8161.000000, 8412.000000, 0.000000, 0.000000, 0.000000, 1.000000, 891.282043, 1545658604.645282, 4.000000, 4.000000, 4.000000, 4.000000, 4.000000, 4.000000, 4.000000, 4.000000, 4.000000, 4.000000, 4.000000, 4.000000, 4.000000, 4.000000, 4.000000, 4.000000
51.000000, 0.000000, 4210.256348, 4207.179199, 4184.102539, 4200.000000, 4185.641113, 4183.076660, 4168.205078, 4174.871582, 4186.666504, 4170.256348, 4184.615234, 4159.487305, 4171.281738, 4182.051270, 0.000000, 8168.000000, 8417.000000, 0.000000, 0.000000, 0.000000, 1.000000, 898.974365, 1545658604.652974, 4.000000, 4.000000, 4.000000, 4.000000, 4.000000, 4.000000, 4.000000, 4.000000, 4.000000, 4.000000, 4.000000, 4.000000, 4.000000, 4.000000, 4.000000, 4.000000
52.000000, 0.000000, 4209.743652, 4200.512695, 4184.102539, 4200.512695, 4184.102539, 4175.384277, 4160.000000, 4171.794922, 4188.717773, 4173.333008, 4188.205078, 4160.000000, 4172.307617, 4183.076660, 0.000000, 8168.000000, 8417.000000, 0.000000, 0.000000, 0.000000, 1.000000, 907.179443, 1545658604.661180, 4.000000, 4.000000, 4.000000, 4.000000, 4.000000, 4.000000, 4.000000, 4.000000, 4.000000, 4.000000, 4.000000, 4.000000, 4.000000, 4.000000, 4.000000, 4.000000
53.000000, 0.000000, 4211.794922, 4210.769043, 4184.615234, 4194.871582, 4181.538574, 4171.281738, 4159.487305, 4168.717773, 4180.000000, 4170.256348, 4189.743652, 4156.922852, 4173.333008, 4182.563965, 0.000000, 8188.000000, 8403.000000, 0.000000, 0.000000, 0.000000, 1.000000, 914.871765, 1545658604.668872, 4.000000, 4.000000, 4.000000, 4.000000, 4.000000, 4.000000, 4.000000, 4.000000, 4.000000, 4.000000, 4.000000, 4.000000, 4.000000, 4.000000, 4.000000, 4.000000
54.000000, 0.000000, 4210.256348, 4216.922852, 4186.666504, 4193.846191, 4180.000000, 4175.897461, 4166.666504, 4171.281738, 4173.333008, 4169.743652, 4190.769043, 4158.461426, 4176.922852, 4184.102539, 0.000000, 8188.000000, 8403.000000, 0.000000, 0.000000, 0.000000, 1.000000, 923.076904, 1545658604.677077, 4.000000, 4.000000, 4.000000, 4.000000, 4.000000, 4.000000, 4.000000, 4.000000, 4.000000, 4.000000, 4.000000, 4.000000, 4.000000, 4.000000, 4.000000, 4.000000
55.000000, 0.000000, 4200.000000, 4202.051270, 4182.563965, 4192.307617, 4172.820313, 4171.794922, 4158.974121, 4169.230469, 4169.230469, 4161.025391, 4187.179199, 4154.871582, 4165.127930, 4172.307617, 0.000000, 8204.000000, 8399.000000, 0.000000, 0.000000, 0.000000, 1.000000, 930.769226, 1545658604.684769, 4.000000, 4.000000, 4.000000, 4.000000, 4.000000, 4.000000, 4.000000, 4.000000, 4.000000, 4.000000, 4.000000, 4.000000, 4.000000, 4.000000, 4.000000, 4.000000
56.000000, 0.000000, 4197.436035, 4197.436035, 4180.000000, 4188.205078, 4170.256348, 4165.641113, 4152.820313, 4167.692383, 4167.179199, 4151.281738, 4184.102539, 4150.256348, 4150.769043, 4164.102539, 0.000000, 8204.000000, 8399.000000, 0.000000, 0.000000, 0.000000, 1.000000, 938.974365, 1545658604.692974, 4.000000, 4.000000, 4.000000, 4.000000, 4.000000, 4.000000, 4.000000, 4.000000, 4.000000, 4.000000, 4.000000, 4.000000, 4.000000, 4.000000, 4.000000, 4.000000
57.000000, 0.000000, 4205.127930, 4206.153809, 4186.153809, 4195.384277, 4181.538574, 4180.512695, 4165.641113, 4172.307617, 4169.743652, 4162.563965, 4188.205078, 4157.948730, 4161.025391, 4178.974121, 0.000000, 8240.000000, 8399.000000, 0.000000, 0.000000, 0.000000, 1.000000, 946.666626, 1545658604.700667, 4.000000, 4.000000, 4.000000, 4.000000, 4.000000, 4.000000, 4.000000, 4.000000, 4.000000, 4.000000, 4.000000, 4.000000, 4.000000, 4.000000, 4.000000, 4.000000
58.000000, 0.000000, 4206.153809, 4202.563965, 4186.666504, 4198.461426, 4183.076660, 4188.205078, 4170.769043, 4172.307617, 4169.230469, 4166.666504, 4187.179199, 4160.512695, 4166.153809, 4181.538574, 0.000000, 8240.000000, 8399.000000, 0.000000, 0.000000, 0.000000, 1.000000, 954.358948, 1545658604.708359, 4.000000, 4.000000, 4.000000, 4.000000, 4.000000, 4.000000, 4.000000, 4.000000, 4.000000, 4.000000, 4.000000, 4.000000, 4.000000, 4.000000, 4.000000, 4.000000
59.000000, 0.000000, 4202.051270, 4197.948730, 4181.025391, 4187.692383, 4170.256348, 4175.897461, 4163.589844, 4169.743652, 4168.205078, 4155.897461, 4180.000000, 4153.333008, 4154.358887, 4168.205078, 0.000000, 8254.000000, 8395.000000, 0.000000, 0.000000, 0.000000, 1.000000, 962.051270, 1545658604.716051, 4.000000, 4.000000, 4.000000, 4.000000, 4.000000, 4.000000, 4.000000, 4.000000, 4.000000, 4.000000, 4.000000, 4.000000, 4.000000, 4.000000, 4.000000, 4.000000
60.000000, 0.000000, 4201.538574, 4202.563965, 4184.102539, 4190.769043, 4172.820313, 4176.922852, 4165.641113, 4170.256348, 4171.794922, 4162.051270, 4188.205078, 4158.461426, 4158.461426, 4176.410156, 0.000000, 8254.000000, 8395.000000, 0.000000, 0.000000, 0.000000, 1.000000, 970.256409, 1545658604.724256, 4.000000, 4.000000, 4.000000, 4.000000, 4.000000, 4.000000, 4.000000, 4.000000, 4.000000, 4.000000, 4.000000, 4.000000, 4.000000, 4.000000, 4.000000, 4.000000
