title:127 - a, recorded:24.12.18 15.35.47, timestamp started:2018-12-24T15:35:47.562+02:00;1545658547.562, sampling:128, subject:, labels:COUNTER INTERPOLATED AF3 F7 F3 FC5 T7 P7 O1 O2 P8 T8 FC6 F4 F8 AF4 RAW_CQ GYROX GYROY MARKER MARKER_HARDWARE SYNC TIME_STAMP_s TIME_STAMP_ms TimeStamp CQ_AF3 CQ_F7 CQ_F3 CQ_FC5 CQ_T7 CQ_P7 CQ_O1 CQ_O2 CQ_P8 CQ_T8 CQ_FC6 CQ_F4 CQ_F8 CQ_AF4 CQ_CMS CQ_DRL, chan:40, samples:1884, units:emotiv
103.000000, 0.000000, 4249.743652, 4251.281738, 4237.436035, 4244.615234, 4229.230469, 4220.512695, 4215.897461, 4223.076660, 4224.102539, 4216.922852, 4238.461426, 4235.897461, 4235.384277, 4226.666504, 3262.000000, 8271.000000, 8086.000000, 1.000000, 3.000000, 0.000000, 0.000000, 0.000000, 1545658547.562000, 4.000000, 4.000000, 4.000000, 4.000000, 4.000000, 4.000000, 4.000000, 4.000000, 4.000000, 4.000000, 4.000000, 4.000000, 4.000000, 4.000000, 4.000000, 4.000000
104.000000, 0.000000, 4251.281738, 4250.256348, 4235.384277, 4241.538574, 4225.127930, 4227.692383, 4205.641113, 4207.179199, 4221.538574, 4217.948730, 4234.871582, 4236.410156, 4235.897461, 4224.102539, 3524.000000, 8271.000000, 8086.000000, 0.000000, 0.000000, 0.000000, 0.000000, 7.692261, 1545658547.569692, 4.000000, 4.000000, 4.000000, 4.000000, 4.000000, 4.000000, 4.000000, 4.000000, 4.000000, 4.000000, 4.000000, 4.000000, 4.000000, 4.000000, 4.000000, 4.000000
105.000000, 0.000000, 4221.025391, 4217.948730, 4201.538574, 4209.230469, 4191.281738, 4185.127930, 4179.487305, 4171.794922, 4186.666504, 4185.641113, 4201.538574, 4202.563965, 4203.589844, 4192.820313, 3058.000000, 8272.000000, 8083.000000, 0.000000, 0.000000, 0.000000, 0.000000, 15.384583, 1545658547.577384, 4.000000, 4.000000, 4.000000, 4.000000, 4.000000, 4.000000, 4.000000, 4.000000, 4.000000, 4.000000, 4.000000, 4.000000, 4.000000, 4.000000, 4.000000, 4.000000
106.000000, 0.000000, 4196.410156, 4193.846191, 4174.871582, 4177.436035, 4161.025391, 4155.384277, 4178.974121, 4165.127930, 4157.436035, 4152.307617, 4174.871582, 4180.512695, 4177.948730, 4171.794922, 3543.000000, 8272.000000, 8083.000000, 0.000000, 0.000000, 0.000000, 0.000000, 23.076904, 1545658547.585077, 4.000000, 4.000000, 4.000000, 4.000000, 4.000000, 4.000000, 4.000000, 4.000000, 4.000000, 4.000000, 4.000000, 4.000000, 4.000000, 4.000000, 4.000000, 4.000000
107.000000, 0.000000, 4197.436035, 4197.948730, 4170.769043, 4175.897461, 4164.102539, 4162.051270, 4178.974121, 4172.820313, 4152.820313, 4143.589844, 4169.230469, 4180.512695, 4172.820313, 4171.281738, 3262.000000, 8273.000000, 8082.000000, 0.000000, 0.000000, 0.000000, 0.000000, 31.282043, 1545658547.593282, 4.000000, 4.000000, 4.000000, 4.000000, 4.000000, 4.000000, 4.000000, 4.000000, 4.000000, 4.000000, 4.000000, 4.000000, 4.000000, 4.000000, 4.000000, 4.000000
108.000000, 0.000000, 4202.051270, 4206.153809, 4172.820313, 4185.127930, 4174.871582, 4168.717773, 4169.230469, 4167.692383, 4158.461426, 4151.281738, 4171.794922, 4177.948730, 4173.333008, 4173.333008, 3524.000000, 8273.000000, 8082.000000, 0.000000, 0.000000, 0.000000, 0.000000, 38.974304, 1545658547.600974, 4.000000, 4.000000, 4.000000, 4.000000, 4.000000, 4.000000, 4.000000, 4.000000, 4.000000, 4.000000, 4.000000, 4.000000, 4.000000, 4.000000, 4.000000, 4.000000
109.000000, 0.000000, 4195.897461, 4197.948730, 4170.769043, 4178.461426, 4169.230469, 4170.256348, 4169.230469, 4161.538574, 4157.436035, 4150.769043, 4164.102539, 4165.641113, 4164.102539, 4164.615234, 3058.000000, 8264.000000, 8083.000000, 0.000000, 0.000000, 0.000000, 0.000000, 46.666626, 1545658547.608666, 4.000000, 4.000000, 4.000000, 4.000000, 4.000000, 4.000000, 4.000000, 4.000000, 4.000000, 4.000000, 4.000000, 4.000000, 4.000000, 4.000000, 4.000000, 4.000000
110.000000, 0.000000, 4201.025391, 4202.051270, 4178.974121, 4184.615234, 4169.230469, 4176.410156, 4178.461426, 4171.794922, 4170.256348, 4154.358887, 4168.717773, 4174.871582, 4168.717773, 4167.692383, 3543.000000, 8264.000000, 8083.000000, 0.000000, 0.000000, 0.000000, 0.000000, 54.358948, 1545658547.616359, 4.000000, 4.000000, 4.000000, 4.000000, 4.000000, 4.000000, 4.000000, 4.000000, 4.000000, 4.000000, 4.000000, 4.000000, 4.000000, 4.000000, 4.000000, 4.000000
111.000000, 0.000000, 4205.127930, 4205.127930, 4184.102539, 4190.769043, 4175.897461, 4173.333008, 4185.641113, 4180.000000, 4185.127930, 4164.102539, 4183.076660, 4186.666504, 4181.025391, 4173.846191, 3262.000000, 8261.000000, 8078.000000, 0.000000, 0.000000, 0.000000, 0.000000, 62.051270, 1545658547.624051, 4.000000, 4.000000, 4.000000, 4.000000, 4.000000, 4.000000, 4.000000, 4.000000, 4.000000, 4.000000, 4.000000, 4.000000, 4.000000, 4.000000, 4.000000, 4.000000
112.000000, 0.000000, 4183.076660, 4182.051270, 4164.615234, 4171.281738, 4170.769043, 4161.538574, 4169.743652, 4164.615234, 4163.076660, 4152.307617, 4164.102539, 4166.153809, 4161.025391, 4151.794922, 3524.000000, 8261.000000, 8078.000000, 0.000000, 0.000000, 0.000000, 0.000000, 69.743591, 1545658547.631744, 4.000000, 4.000000, 4.000000, 4.000000, 4.000000, 4.000000, 4.000000, 4.000000, 4.000000, 4.000000, 4.000000, 4.000000, 4.000000, 4.000000, 4.000000, 4.000000
113.000000, 0.000000, 4174.358887, 4172.307617, 4154.358887, 4163.589844, 4167.692383, 4160.000000, 4145.127930, 4153.846191, 4143.589844, 4141.025391, 4145.641113, 4153.846191, 4143.076660, 4138.461426, 3058.000000, 8263.000000, 8062.000000, 0.000000, 0.000000, 0.000000, 0.000000, 77.435852, 1545658547.639436, 4.000000, 4.000000, 4.000000, 4.000000, 4.000000, 4.000000, 4.000000, 4.000000, 4.000000, 4.000000, 4.000000, 4.000000, 4.000000, 4.000000, 4.000000, 4.000000
114.000000, 0.000000, 4190.256348, 4185.641113, 4166.666504, 4172.307617, 4169.743652, 4157.436035, 4147.179199, 4167.692383, 4158.974121, 4152.307617, 4162.563965, 4169.743652, 4154.871582, 4152.820313, 3543.000000, 8263.000000, 8062.000000, 0.000000, 0.000000, 0.000000, 0.000000, 85.128174, 1545658547.647128, 4.000000, 4.000000, 4.000000, 4.000000, 4.000000, 4.000000, 4.000000, 4.000000, 4.000000, 4.000000, 4.000000, 4.000000, 4.000000, 4.000000, 4.000000, 4.000000
115.000000, 0.000000, 4192.307617, 4190.769043, 4166.666504, 4173.333008, 4169.743652, 4154.871582, 4168.205078, 4166.666504, 4160.000000, 4156.922852, 4170.769043, 4171.281738, 4157.436035, 4152.820313, 3262.000000, 8266.000000, 8052.000000, 0.000000, 0.000000, 0.000000, 0.000000, 92.820496, 1545658547.654820, 4.000000, 4.000000, 4.000000, 4.000000, 4.000000, 4.000000, 4.000000, 4.000000, 4.000000, 4.000000, 4.000000, 4.000000, 4.000000, 4.000000, 4.000000, 4.000000
116.000000, 0.000000, 4181.025391, 4183.076660, 4151.794922, 4169.743652, 4168.717773, 4157.948730, 4163.589844, 4148.205078, 4143.589844, 4141.538574, 4149.743652, 4151.281738, 4139.487305, 4134.358887, 3524.000000, 8266.000000, 8052.000000, 0.000000, 0.000000, 0.000000, 0.000000, 100.512817, 1545658547.662513, 4.000000, 4.000000, 4.000000, 4.000000, 4.000000, 4.000000, 4.000000, 4.000000, 4.000000, 4.000000, 4.000000, 4.000000, 4.000000, 4.000000, 4.000000, 4.000000
117.000000, 0.000000, 4178.974121, 4180.000000, 4152.820313, 4170.256348, 4168.717773, 4157.948730, 4148.205078, 4145.127930, 4143.589844, 4132.820313, 4140.512695, 4150.256348, 4130.769043, 4133.333008, 3058.000000, 8273.000000, 8044.000000, 0.000000, 0.000000, 0.000000, 0.000000, 108.205078, 1545658547.670205, 4.000000, 4.000000, 4.000000, 4.000000, 4.000000, 4.000000, 4.000000, 4.000000, 4.000000, 4.000000, 4.000000, 4.000000, 4.000000, 4.000000, 4.000000, 4.000000
118.000000, 0.000000, 4177.436035, 4176.922852, 4159.487305, 4165.127930, 4166.666504, 4156.410156, 4161.025391, 4163.076660, 4146.666504, 4131.281738, 4143.076660, 4159.487305, 4124.615234, 4142.051270, 3543.000000, 8273.000000, 8044.000000, 0.000000, 0.000000, 0.000000, 0.000000, 115.897400, 1545658547.677897, 4.000000, 4.000000, 4.000000, 4.000000, 4.000000, 4.000000, 4.000000, 4.000000, 4.000000, 4.000000, 4.000000, 4.000000, 4.000000, 4.000000, 4.000000, 4.000000
119.000000, 0.000000, 4167.179199, 4164.102539, 4150.769043, 4149.230469, 4158.974121, 4157.948730, 4174.358887, 4171.281738, 4137.436035, 4119.487305, 4127.692383, 4145.641113, 4107.692383, 4130.769043, 3262.000000, 8277.000000, 8042.000000, 0.000000, 0.000000, 0.000000, 0.000000, 124.102539, 1545658547.686103, 4.000000, 4.000000, 4.000000, 4.000000, 4.000000, 4.000000, 4.000000, 4.000000, 4.000000, 4.000000, 4.000000, 4.000000, 4.000000, 4.000000, 4.000000, 4.000000
120.000000, 0.000000, 4166.153809, 4154.358887, 4144.615234, 4142.563965, 4155.897461, 4156.410156, 4169.230469, 4156.410156, 4132.307617, 4114.871582, 4115.384277, 4134.871582, 4100.512695, 4121.025391, 3524.000000, 8277.000000, 8042.000000, 0.000000, 0.000000, 0.000000, 0.000000, 131.794861, 1545658547.693795, 4.000000, 4.000000, 4.000000, 4.000000, 4.000000, 4.000000, 4.000000, 4.000000, 4.000000, 4.000000, 4.000000, 4.000000, 4.000000, 4.000000, 4.000000, 4.000000
121.000000, 0.000000, 4165.127930, 4148.205078, 4143.076660, 4140.512695, 4153.333008, 4144.102539, 4150.769043, 4145.127930, 4128.717773, 4113.846191, 4111.794922, 4139.487305, 4094.871582, 4121.025391, 3058.000000, 8279.000000, 8044.000000, 0.000000, 0.000000, 0.000000, 0.000000, 139.487122, 1545658547.701487, 4.000000, 4.000000, 4.000000, 4.000000, 4.000000, 4.000000, 4.000000, 4.000000, 4.000000, 4.000000, 4.000000, 4.000000, 4.000000, 4.000000, 4.000000, 4.000000
122.000000, 0.000000, 4152.307617, 4135.384277, 4131.794922, 4131.281738, 4137.436035, 4131.794922, 4134.358887, 4138.974121, 4120.512695, 4102.563965, 4100.000000, 4129.230469, 4080.000000, 4111.281738, 3543.000000, 8279.000000, 8044.000000, 0.000000, 0.000000, 0.000000, 0.000000, 147.179443, 1545658547.709179, 4.000000, 4.000000, 4.000000, 4.000000, 4.000000, 4.000000, 4.000000, 4.000000, 4.000000, 4.000000, 4.000000, 4.000000, 4.000000, 4.000000, 4.000000, 4.000000
123.000000, 0.000000, 4160.000000, 4146.153809, 4141.025391, 4143.589844, 4137.948730, 4136.922852, 4143.589844, 4142.051270, 4128.717773, 4114.358887, 4114.358887, 4130.256348, 4093.333252, 4116.922852, 3262.000000, 8279.000000, 8044.000000, 0.000000, 0.000000, 0.000000, 0.000000, 154.871765, 1545658547.716872, 4.000000, 4.000000, 4.000000, 4.000000, 4.000000, 4.000000, 4.000000, 4.000000, 4.000000, 4.000000, 4.000000, 4.000000, 4.000000, 4.000000, 4.000000, 4.000000
124.000000, 0.000000, 4187.179199, 4180.512695, 4169.230469, 4173.846191, 4163.589844, 4150.256348, 4161.538574, 4155.384277, 4147.179199, 4147.179199, 4152.307617, 4160.512695, 4129.230469, 4145.641113, 3524.000000, 8279.000000, 8044.000000, 0.000000, 0.000000, 0.000000, 0.000000, 162.564087, 1545658547.724564, 4.000000, 4.000000, 4.000000, 4.000000, 4.000000, 4.000000, 4.000000, 4.000000, 4.000000, 4.000000, 4.000000, 4.000000, 4.000000, 4.000000, 4.000000, 4.000000
125.000000, 0.000000, 4191.281738, 4185.641113, 4167.692383, 4173.333008, 4169.743652, 4152.820313, 4158.974121, 4162.563965, 4150.256348, 4155.897461, 4156.410156, 4167.179199, 4135.897461, 4148.205078, 3058.000000, 8275.000000, 8033.000000, 0.000000, 0.000000, 0.000000, 0.000000, 170.256409, 1545658547.732256, 4.000000, 4.000000, 4.000000, 4.000000, 4.000000, 4.000000, 4.000000, 4.000000, 4.000000, 4.000000, 4.000000, 4.000000, 4.000000, 4.000000, 4.000000, 4.000000
126.000000, 0.000000, 4180.000000, 4174.358887, 4154.871582, 4160.000000, 4161.538574, 4156.922852, 4152.820313, 4157.948730, 4149.230469, 4147.179199, 4139.487305, 4148.205078, 4120.512695, 4129.230469, 3543.000000, 8275.000000, 8033.000000, 0.000000, 0.000000, 0.000000, 0.000000, 177.948669, 1545658547.739949, 4.000000, 4.000000, 4.000000, 4.000000, 4.000000, 4.000000, 4.000000, 4.000000, 4.000000, 4.000000, 4.000000, 4.000000, 4.000000, 4.000000, 4.000000, 4.000000
127.000000, 0.000000, 4186.666504, 4184.615234, 4166.666504, 4171.281738, 4167.179199, 4163.589844, 4160.512695, 4167.692383, 4162.051270, 4149.743652, 4152.307617, 4157.948730, 4121.025391, 4138.974121, 56.000000, 8270.000000, 8037.000000, 0.000000, 0.000000, 0.000000, 0.000000, 185.640991, 1545658547.747641, 4.000000, 4.000000, 4.000000, 4.000000, 4.000000, 4.000000, 4.000000, 4.000000, 4.000000, 4.000000, 4.000000, 4.000000, 4.000000, 4.000000, 4.000000, 4.000000
0.000000, 0.000000, 4185.127930, 4180.000000, 4163.589844, 4165.641113, 4163.076660, 4158.974121, 4165.641113, 4168.205078, 4154.871582, 4138.461426, 4155.384277, 4163.589844, 4114.871582, 4145.127930, 3326.000000, 8270.000000, 8037.000000, 0.000000, 0.000000, 0.000000, 0.000000, 193.333313, 1545658547.755333, 4.000000, 4.000000, 4.000000, 4.000000, 4.000000, 4.000000, 4.000000, 4.000000, 4.000000, 4.000000, 4.000000, 4.000000, 4.000000, 4.000000, 4.000000, 4.000000
1.000000, 0.000000, 4155.897461, 4148.205078, 4132.307617, 4132.307617, 4144.615234, 4151.794922, 4168.717773, 4143.589844, 4120.512695, 4107.179199, 4117.948730, 4134.358887, 4082.563965, 4114.871582, 3516.000000, 8261.000000, 8029.000000, 0.000000, 0.000000, 0.000000, 0.000000, 201.025635, 1545658547.763026, 4.000000, 4.000000, 4.000000, 4.000000, 4.000000, 4.000000, 4.000000, 4.000000, 4.000000, 4.000000, 4.000000, 4.000000, 4.000000, 4.000000, 4.000000, 4.000000
2.000000, 0.000000, 4153.333008, 4148.205078, 4134.871582, 4135.384277, 4150.769043, 4155.384277, 4172.307617, 4163.076660, 4130.256348, 4112.820313, 4112.820313, 4130.256348, 4081.025635, 4111.794922, 3306.000000, 8261.000000, 8029.000000, 0.000000, 0.000000, 0.000000, 0.000000, 209.230713, 1545658547.771231, 4.000000, 4.000000, 4.000000, 4.000000, 4.000000, 4.000000, 4.000000, 4.000000, 4.000000, 4.000000, 4.000000, 4.000000, 4.000000, 4.000000, 4.000000, 4.000000
3.000000, 0.000000, 4182.051270, 4176.922852, 4162.563965, 4165.127930, 4168.205078, 4164.615234, 4173.846191, 4190.256348, 4164.615234, 4143.589844, 4148.717773, 4157.436035, 4117.436035, 4142.563965, 3571.000000, 8258.000000, 8020.000000, 0.000000, 0.000000, 0.000000, 0.000000, 216.923072, 1545658547.778923, 4.000000, 4.000000, 4.000000, 4.000000, 4.000000, 4.000000, 4.000000, 4.000000, 4.000000, 4.000000, 4.000000, 4.000000, 4.000000, 4.000000, 4.000000, 4.000000
4.000000, 0.000000, 4199.487305, 4188.205078, 4169.743652, 4171.281738, 4171.794922, 4178.461426, 4185.127930, 4168.205078, 4168.717773, 4153.333008, 4170.256348, 4169.230469, 4143.589844, 4159.487305, 3376.000000, 8258.000000, 8020.000000, 0.000000, 0.000000, 0.000000, 0.000000, 224.615379, 1545658547.786615, 4.000000, 4.000000, 4.000000, 4.000000, 4.000000, 4.000000, 4.000000, 4.000000, 4.000000, 4.000000, 4.000000, 4.000000, 4.000000, 4.000000, 4.000000, 4.000000
5.000000, 0.000000, 4203.076660, 4186.153809, 4174.871582, 4174.871582, 4176.922852, 4188.205078, 4200.000000, 4162.563965, 4175.897461, 4160.512695, 4179.487305, 4177.436035, 4156.410156, 4167.179199, 3471.000000, 8254.000000, 8009.000000, 0.000000, 0.000000, 0.000000, 0.000000, 232.307688, 1545658547.794308, 4.000000, 4.000000, 4.000000, 4.000000, 4.000000, 4.000000, 4.000000, 4.000000, 4.000000, 4.000000, 4.000000, 4.000000, 4.000000, 4.000000, 4.000000, 4.000000
6.000000, 0.000000, 4202.051270, 4185.127930, 4181.538574, 4180.512695, 4181.025391, 4181.025391, 4195.384277, 4187.692383, 4187.692383, 4172.307617, 4187.179199, 4185.127930, 4157.436035, 4171.281738, 3391.000000, 8254.000000, 8009.000000, 0.000000, 0.000000, 0.000000, 0.000000, 239.999994, 1545658547.802000, 4.000000, 4.000000, 4.000000, 4.000000, 4.000000, 4.000000, 4.000000, 4.000000, 4.000000, 4.000000, 4.000000, 4.000000, 4.000000, 4.000000, 4.000000, 4.000000
7.000000, 0.000000, 4203.076660, 4195.384277, 4177.948730, 4177.436035, 4183.589844, 4183.076660, 4190.769043, 4191.794922, 4184.615234, 4173.333008, 4185.641113, 4178.461426, 4153.846191, 4168.205078, 3218.000000, 8252.000000, 8007.000000, 0.000000, 0.000000, 0.000000, 0.000000, 247.692303, 1545658547.809692, 4.000000, 4.000000, 4.000000, 4.000000, 4.000000, 4.000000, 4.000000, 4.000000, 4.000000, 4.000000, 4.000000, 4.000000, 4.000000, 4.000000, 4.000000, 4.000000
8.000000, 0.000000, 4206.153809, 4205.127930, 4178.461426, 4183.076660, 4189.230469, 4192.307617, 4196.922852, 4186.666504, 4185.127930, 4173.846191, 4186.153809, 4173.333008, 4157.948730, 4171.281738, 3420.000000, 8252.000000, 8007.000000, 0.000000, 0.000000, 0.000000, 0.000000, 255.384609, 1545658547.817384, 4.000000, 4.000000, 4.000000, 4.000000, 4.000000, 4.000000, 4.000000, 4.000000, 4.000000, 4.000000, 4.000000, 4.000000, 4.000000, 4.000000, 4.000000, 4.000000
9.000000, 0.000000, 4200.000000, 4194.358887, 4181.025391, 4182.051270, 4183.589844, 4185.641113, 4191.281738, 4188.205078, 4186.153809, 4169.743652, 4184.102539, 4173.846191, 4152.307617, 4170.256348, 3231.000000, 8254.000000, 8009.000000, 0.000000, 0.000000, 0.000000, 0.000000, 263.076916, 1545658547.825077, 4.000000, 4.000000, 4.000000, 4.000000, 4.000000, 4.000000, 4.000000, 4.000000, 4.000000, 4.000000, 4.000000, 4.000000, 4.000000, 4.000000, 4.000000, 4.000000
10.000000, 0.000000, 4191.281738, 4182.563965, 4176.410156, 4172.820313, 4177.948730, 4181.025391, 4186.153809, 4174.358887, 4168.205078, 4155.384277, 4170.256348, 4169.743652, 4136.922852, 4160.000000, 3546.000000, 8254.000000, 8009.000000, 0.000000, 0.000000, 0.000000, 0.000000, 270.769226, 1545658547.832769, 4.000000, 4.000000, 4.000000, 4.000000, 4.000000, 4.000000, 4.000000, 4.000000, 4.000000, 4.000000, 4.000000, 4.000000, 4.000000, 4.000000, 4.000000, 4.000000
11.000000, 0.000000, 4204.102539, 4193.333008, 4180.512695, 4184.615234, 4192.307617, 4186.666504, 4187.692383, 4165.641113, 4161.538574, 4156.922852, 4172.820313, 4175.384277, 4144.615234, 4168.717773, 3260.000000, 8255.000000, 8010.000000, 0.000000, 0.000000, 0.000000, 0.000000, 278.461533, 1545658547.840461, 4.000000, 4.000000, 4.000000, 4.000000, 4.000000, 4.000000, 4.000000, 4.000000, 4.000000, 4.000000, 4.000000, 4.000000, 4.000000, 4.000000, 4.000000, 4.000000
12.000000, 0.000000, 4216.410156, 4204.615234, 4190.256348, 4197.948730, 4199.487305, 4187.692383, 4187.692383, 4184.102539, 4178.974121, 4171.281738, 4187.179199, 4186.666504, 4154.871582, 4184.102539, 3512.000000, 8255.000000, 8010.000000, 0.000000, 0.000000, 0.000000, 0.000000, 286.153839, 1545658547.848154, 4.000000, 4.000000, 4.000000, 4.000000, 4.000000, 4.000000, 4.000000, 4.000000, 4.000000, 4.000000, 4.000000, 4.000000, 4.000000, 4.000000, 4.000000, 4.000000
13.000000, 0.000000, 4208.205078, 4204.615234, 4190.769043, 4189.743652, 4189.230469, 4186.153809, 4187.692383, 4201.025391, 4191.281738, 4174.358887, 4188.717773, 4186.666504, 4148.717773, 4179.487305, 3137.000000, 8263.000000, 8001.000000, 0.000000, 0.000000, 0.000000, 0.000000, 294.358971, 1545658547.856359, 4.000000, 4.000000, 4.000000, 4.000000, 4.000000, 4.000000, 4.000000, 4.000000, 4.000000, 4.000000, 4.000000, 4.000000, 4.000000, 4.000000, 4.000000, 4.000000
14.000000, 0.000000, 4199.487305, 4197.436035, 4187.179199, 4183.076660, 4180.512695, 4183.076660, 4184.615234, 4184.615234, 4187.692383, 4174.358887, 4181.538574, 4182.051270, 4144.615234, 4172.307617, 3546.000000, 8263.000000, 8001.000000, 0.000000, 0.000000, 0.000000, 0.000000, 302.051277, 1545658547.864051, 4.000000, 4.000000, 4.000000, 4.000000, 4.000000, 4.000000, 4.000000, 4.000000, 4.000000, 4.000000, 4.000000, 4.000000, 4.000000, 4.000000, 4.000000, 4.000000
15.000000, 0.000000, 4193.333008, 4177.436035, 4177.948730, 4176.922852, 4170.256348, 4175.384277, 4187.179199, 4174.871582, 4180.000000, 4171.281738, 4170.256348, 4172.307617, 4134.358887, 4164.615234, 3260.000000, 8263.000000, 7998.000000, 0.000000, 0.000000, 0.000000, 0.000000, 309.743584, 1545658547.871744, 4.000000, 4.000000, 4.000000, 4.000000, 4.000000, 4.000000, 4.000000, 4.000000, 4.000000, 4.000000, 4.000000, 4.000000, 4.000000, 4.000000, 4.000000, 4.000000
16.000000, 0.000000, 4187.692383, 4169.743652, 4175.384277, 4168.717773, 4165.127930, 4171.281738, 4187.692383, 4193.333008, 4185.127930, 4171.281738, 4167.692383, 4167.179199, 4127.692383, 4160.512695, 0.000000, 8263.000000, 7998.000000, 0.000000, 0.000000, 0.000000, 0.000000, 317.435890, 1545658547.879436, 4.000000, 4.000000, 4.000000, 4.000000, 4.000000, 4.000000, 4.000000, 4.000000, 4.000000, 4.000000, 4.000000, 4.000000, 4.000000, 4.000000, 4.000000, 4.000000
17.000000, 0.000000, 4186.153809, 4182.563965, 4182.563965, 4170.256348, 4169.743652, 4165.127930, 4174.358887, 4186.666504, 4184.615234, 4170.769043, 4171.281738, 4171.794922, 4132.307617, 4160.512695, 0.000000, 8252.000000, 7998.000000, 0.000000, 0.000000, 0.000000, 0.000000, 325.128197, 1545658547.887128, 4.000000, 4.000000, 4.000000, 4.000000, 4.000000, 4.000000, 4.000000, 4.000000, 4.000000, 4.000000, 4.000000, 4.000000, 4.000000, 4.000000, 4.000000, 4.000000
18.000000, 0.000000, 4180.000000, 4179.487305, 4176.410156, 4170.769043, 4167.179199, 4153.333008, 4167.692383, 4176.922852, 4174.871582, 4162.051270, 4164.615234, 4166.666504, 4124.102539, 4156.410156, 0.000000, 8252.000000, 7998.000000, 0.000000, 0.000000, 0.000000, 0.000000, 332.820503, 1545658547.894820, 4.000000, 4.000000, 4.000000, 4.000000, 4.000000, 4.000000, 4.000000, 4.000000, 4.000000, 4.000000, 4.000000, 4.000000, 4.000000, 4.000000, 4.000000, 4.000000
19.000000, 0.000000, 4176.410156, 4162.051270, 4164.615234, 4167.692383, 4160.512695, 4155.384277, 4177.436035, 4188.717773, 4169.230469, 4157.436035, 4152.307617, 4153.846191, 4110.256348, 4145.641113, 0.000000, 8241.000000, 8000.000000, 0.000000, 0.000000, 0.000000, 0.000000, 340.512817, 1545658547.902513, 4.000000, 4.000000, 4.000000, 4.000000, 4.000000, 4.000000, 4.000000, 4.000000, 4.000000, 4.000000, 4.000000, 4.000000, 4.000000, 4.000000, 4.000000, 4.000000
20.000000, 0.000000, 4186.666504, 4168.717773, 4172.820313, 4177.436035, 4172.820313, 4174.358887, 4180.000000, 4185.127930, 4164.615234, 4162.563965, 4154.358887, 4156.410156, 4122.051270, 4145.127930, 0.000000, 8241.000000, 8000.000000, 0.000000, 0.000000, 0.000000, 0.000000, 348.205124, 1545658547.910205, 4.000000, 4.000000, 4.000000, 4.000000, 4.000000, 4.000000, 4.000000, 4.000000, 4.000000, 4.000000, 4.000000, 4.000000, 4.000000, 4.000000, 4.000000, 4.000000
21.000000, 0.000000, 4186.153809, 4178.974121, 4176.922852, 4177.948730, 4181.025391, 4176.922852, 4176.922852, 4166.153809, 4157.436035, 4158.461426, 4159.487305, 4161.538574, 4128.717773, 4148.205078, 0.000000, 8234.000000, 8008.000000, 0.000000, 0.000000, 0.000000, 0.000000, 355.897430, 1545658547.917897, 4.000000, 4.000000, 4.000000, 4.000000, 4.000000, 4.000000, 4.000000, 4.000000, 4.000000, 4.000000, 4.000000, 4.000000, 4.000000, 4.000000, 4.000000, 4.000000
22.000000, 0.000000, 4168.717773, 4164.615234, 4162.051270, 4157.948730, 4171.794922, 4166.666504, 4178.461426, 4169.743652, 4155.384277, 4150.769043, 4151.281738, 4150.256348, 4115.897461, 4138.461426, 0.000000, 8234.000000, 8008.000000, 0.000000, 0.000000, 0.000000, 0.000000, 363.589737, 1545658547.925590, 4.000000, 4.000000, 4.000000, 4.000000, 4.000000, 4.000000, 4.000000, 4.000000, 4.000000, 4.000000, 4.000000, 4.000000, 4.000000, 4.000000, 4.000000, 4.000000
23.000000, 0.000000, 4166.666504, 4156.922852, 4160.000000, 4156.922852, 4171.794922, 4180.000000, 4183.589844, 4183.589844, 4165.127930, 4156.922852, 4143.589844, 4145.641113, 4125.127930, 4133.846191, 0.000000, 8231.000000, 8014.000000, 0.000000, 0.000000, 0.000000, 0.000000, 371.282043, 1545658547.933282, 4.000000, 4.000000, 4.000000, 4.000000, 4.000000, 4.000000, 4.000000, 4.000000, 4.000000, 4.000000, 4.000000, 4.000000, 4.000000, 4.000000, 4.000000, 4.000000
24.000000, 0.000000, 4169.743652, 4159.487305, 4164.615234, 4166.153809, 4171.281738, 4183.076660, 4185.127930, 4176.410156, 4159.487305, 4153.333008, 4136.922852, 4146.153809, 4144.102539, 4131.281738, 0.000000, 8231.000000, 8014.000000, 0.000000, 0.000000, 0.000000, 0.000000, 379.487167, 1545658547.941487, 4.000000, 4.000000, 4.000000, 4.000000, 4.000000, 4.000000, 4.000000, 4.000000, 4.000000, 4.000000, 4.000000, 4.000000, 4.000000, 4.000000, 4.000000, 4.000000
25.000000, 0.000000, 4160.512695, 4153.846191, 4157.948730, 4154.871582, 4162.563965, 4162.563965, 4185.641113, 4156.922852, 4141.538574, 4138.974121, 4129.230469, 4139.487305, 4152.820313, 4121.025391, 0.000000, 8233.000000, 8012.000000, 0.000000, 0.000000, 0.000000, 0.000000, 387.179474, 1545658547.949179, 4.000000, 4.000000, 4.000000, 4.000000, 4.000000, 4.000000, 4.000000, 4.000000, 4.000000, 4.000000, 4.000000, 4.000000, 4.000000, 4.000000, 4.000000, 4.000000
26.000000, 0.000000, 4152.307617, 4148.717773, 4151.281738, 4144.102539, 4162.051270, 4162.051270, 4191.794922, 4148.717773, 4140.000000, 4137.948730, 4123.589844, 4136.410156, 4168.717773, 4113.846191, 0.000000, 8233.000000, 8012.000000, 0.000000, 0.000000, 0.000000, 0.000000, 394.871780, 1545658547.956872, 4.000000, 4.000000, 4.000000, 4.000000, 4.000000, 4.000000, 4.000000, 4.000000, 4.000000, 4.000000, 4.000000, 4.000000, 4.000000, 4.000000, 4.000000, 4.000000
27.000000, 0.000000, 4152.820313, 4150.256348, 4152.307617, 4148.205078, 4167.692383, 4171.794922, 4193.333008, 4171.281738, 4153.846191, 4145.641113, 4116.922852, 4138.461426, 4188.717773, 4110.769043, 0.000000, 8226.000000, 8013.000000, 0.000000, 0.000000, 0.000000, 0.000000, 402.564087, 1545658547.964564, 4.000000, 4.000000, 4.000000, 4.000000, 4.000000, 4.000000, 4.000000, 4.000000, 4.000000, 4.000000, 4.000000, 4.000000, 4.000000, 4.000000, 4.000000, 4.000000
28.000000, 0.000000, 4154.358887, 4154.358887, 4155.384277, 4153.333008, 4170.256348, 4171.281738, 4184.102539, 4182.051270, 4161.025391, 4152.820313, 4118.974121, 4138.974121, 4203.076660, 4108.717773, 0.000000, 8226.000000, 8013.000000, 0.000000, 0.000000, 0.000000, 0.000000, 410.256393, 1545658547.972256, 4.000000, 4.000000, 4.000000, 4.000000, 4.000000, 4.000000, 4.000000, 4.000000, 4.000000, 4.000000, 4.000000, 4.000000, 4.000000, 4.000000, 4.000000, 4.000000
29.000000, 0.000000, 4152.307617, 4158.974121, 4152.820313, 4153.333008, 4175.384277, 4175.384277, 4182.051270, 4162.051270, 4151.281738, 4154.358887, 4123.076660, 4138.461426, 4212.307617, 4104.102539, 0.000000, 8220.000000, 7990.000000, 0.000000, 0.000000, 0.000000, 0.000000, 417.948715, 1545658547.979949, 4.000000, 4.000000, 4.000000, 4.000000, 4.000000, 4.000000, 4.000000, 4.000000, 4.000000, 4.000000, 4.000000, 4.000000, 4.000000, 4.000000, 4.000000, 4.000000
30.000000, 0.000000, 4143.589844, 4162.051270, 4144.102539, 4152.820313, 4181.025391, 4178.461426, 4191.281738, 4162.563965, 4140.000000, 4140.000000, 4109.230469, 4132.820313, 4206.153809, 4093.333252, 0.000000, 8220.000000, 7990.000000, 0.000000, 0.000000, 0.000000, 0.000000, 425.641022, 1545658547.987641, 4.000000, 4.000000, 4.000000, 4.000000, 4.000000, 4.000000, 4.000000, 4.000000, 4.000000, 4.000000, 4.000000, 4.000000, 4.000000, 4.000000, 4.000000, 4.000000
31.000000, 0.000000, 4132.307617, 4162.563965, 4138.974121, 4155.897461, 4177.948730, 4170.256348, 4185.127930, 4168.717773, 4136.922852, 4127.692383, 4096.410156, 4126.153809, 4198.461426, 4081.025635, 0.000000, 8218.000000, 7983.000000, 0.000000, 0.000000, 0.000000, 0.000000, 433.333328, 1545658547.995333, 4.000000, 4.000000, 4.000000, 4.000000, 4.000000, 4.000000, 4.000000, 4.000000, 4.000000, 4.000000, 4.000000, 4.000000, 4.000000, 4.000000, 4.000000, 4.000000
32.000000, 0.000000, 4141.025391, 4167.179199, 4150.769043, 4166.153809, 4182.563965, 4177.948730, 4181.538574, 4166.666504, 4155.384277, 4148.205078, 4118.974121, 4141.025391, 4222.563965, 4093.333252, 0.000000, 8218.000000, 7983.000000, 0.000000, 0.000000, 0.000000, 0.000000, 441.025635, 1545658548.003026, 4.000000, 4.000000, 4.000000, 4.000000, 4.000000, 4.000000, 4.000000, 4.000000, 4.000000, 4.000000, 4.000000, 4.000000, 4.000000, 4.000000, 4.000000, 4.000000
33.000000, 0.000000, 4157.948730, 4170.256348, 4161.025391, 4167.692383, 4191.281738, 4191.794922, 4201.025391, 4178.974121, 4177.436035, 4176.922852, 4153.333008, 4162.051270, 4253.333008, 4113.846191, 0.000000, 8222.000000, 7985.000000, 0.000000, 0.000000, 0.000000, 0.000000, 448.717941, 1545658548.010718, 4.000000, 4.000000, 4.000000, 4.000000, 4.000000, 4.000000, 4.000000, 4.000000, 4.000000, 4.000000, 4.000000, 4.000000, 4.000000, 4.000000, 4.000000, 4.000000
34.000000, 0.000000, 4150.256348, 4155.897461, 4153.846191, 4153.333008, 4178.974121, 4184.102539, 4203.589844, 4187.692383, 4173.846191, 4169.743652, 4152.307617, 4157.436035, 4247.179199, 4110.256348, 0.000000, 8222.000000, 7985.000000, 0.000000, 0.000000, 0.000000, 0.000000, 456.410248, 1545658548.018410, 4.000000, 4.000000, 4.000000, 4.000000, 4.000000, 4.000000, 4.000000, 4.000000, 4.000000, 4.000000, 4.000000, 4.000000, 4.000000, 4.000000, 4.000000, 4.000000
35.000000, 0.000000, 4136.410156, 4138.974121, 4149.230469, 4146.666504, 4164.615234, 4176.410156, 4189.743652, 4179.487305, 4161.025391, 4152.820313, 4138.461426, 4148.205078, 4229.230469, 4102.563965, 0.000000, 8224.000000, 7987.000000, 0.000000, 0.000000, 0.000000, 0.000000, 464.615372, 1545658548.026615, 4.000000, 4.000000, 4.000000, 4.000000, 4.000000, 4.000000, 4.000000, 4.000000, 4.000000, 4.000000, 4.000000, 4.000000, 4.000000, 4.000000, 4.000000, 4.000000
36.000000, 0.000000, 4145.127930, 4142.563965, 4158.461426, 4150.769043, 4170.256348, 4185.641113, 4194.358887, 4189.230469, 4168.205078, 4160.512695, 4143.589844, 4156.410156, 4230.256348, 4107.179199, 0.000000, 8224.000000, 7987.000000, 0.000000, 0.000000, 0.000000, 0.000000, 472.307678, 1545658548.034308, 4.000000, 4.000000, 4.000000, 4.000000, 4.000000, 4.000000, 4.000000, 4.000000, 4.000000, 4.000000, 4.000000, 4.000000, 4.000000, 4.000000, 4.000000, 4.000000
37.000000, 0.000000, 4155.897461, 4154.871582, 4167.179199, 4154.871582, 4177.436035, 4186.153809, 4202.051270, 4196.410156, 4175.897461, 4171.794922, 4152.820313, 4165.127930, 4233.333008, 4110.769043, 0.000000, 8231.000000, 7984.000000, 0.000000, 0.000000, 0.000000, 0.000000, 480.000000, 1545658548.042000, 4.000000, 4.000000, 4.000000, 4.000000, 4.000000, 4.000000, 4.000000, 4.000000, 4.000000, 4.000000, 4.000000, 4.000000, 4.000000, 4.000000, 4.000000, 4.000000
38.000000, 0.000000, 4154.358887, 4159.487305, 4169.743652, 4163.589844, 4171.794922, 4175.384277, 4196.410156, 4185.641113, 4173.333008, 4169.743652, 4154.358887, 4166.153809, 4233.333008, 4114.871582, 0.000000, 8231.000000, 7984.000000, 0.000000, 0.000000, 0.000000, 0.000000, 487.692291, 1545658548.049692, 4.000000, 4.000000, 4.000000, 4.000000, 4.000000, 4.000000, 4.000000, 4.000000, 4.000000, 4.000000, 4.000000, 4.000000, 4.000000, 4.000000, 4.000000, 4.000000
39.000000, 0.000000, 4159.487305, 4156.922852, 4172.820313, 4167.692383, 4166.153809, 4173.333008, 4197.948730, 4207.179199, 4186.153809, 4173.333008, 4156.410156, 4170.256348, 4232.820313, 4124.102539, 0.000000, 8229.000000, 7964.000000, 0.000000, 0.000000, 0.000000, 0.000000, 495.384613, 1545658548.057384, 4.000000, 4.000000, 4.000000, 4.000000, 4.000000, 4.000000, 4.000000, 4.000000, 4.000000, 4.000000, 4.000000, 4.000000, 4.000000, 4.000000, 4.000000, 4.000000
40.000000, 0.000000, 4164.102539, 4151.281738, 4175.384277, 4159.487305, 4165.641113, 4175.897461, 4200.000000, 4218.974121, 4193.333008, 4180.000000, 4157.436035, 4174.358887, 4225.641113, 4122.051270, 0.000000, 8229.000000, 7964.000000, 0.000000, 0.000000, 0.000000, 0.000000, 503.076904, 1545658548.065077, 4.000000, 4.000000, 4.000000, 4.000000, 4.000000, 4.000000, 4.000000, 4.000000, 4.000000, 4.000000, 4.000000, 4.000000, 4.000000, 4.000000, 4.000000, 4.000000
41.000000, 0.000000, 4158.974121, 4142.051270, 4170.256348, 4152.307617, 4164.102539, 4172.820313, 4189.230469, 4176.922852, 4173.846191, 4171.281738, 4151.281738, 4170.769043, 4215.897461, 4113.846191, 0.000000, 8234.000000, 7953.000000, 0.000000, 0.000000, 0.000000, 0.000000, 510.769226, 1545658548.072769, 4.000000, 4.000000, 4.000000, 4.000000, 4.000000, 4.000000, 4.000000, 4.000000, 4.000000, 4.000000, 4.000000, 4.000000, 4.000000, 4.000000, 4.000000, 4.000000
42.000000, 0.000000, 4161.538574, 4143.589844, 4172.820313, 4154.871582, 4173.333008, 4183.076660, 4193.333008, 4162.563965, 4168.717773, 4170.256348, 4158.461426, 4167.692383, 4217.948730, 4117.436035, 0.000000, 8234.000000, 7953.000000, 0.000000, 0.000000, 0.000000, 0.000000, 518.461517, 1545658548.080462, 4.000000, 4.000000, 4.000000, 4.000000, 4.000000, 4.000000, 4.000000, 4.000000, 4.000000, 4.000000, 4.000000, 4.000000, 4.000000, 4.000000, 4.000000, 4.000000
43.000000, 0.000000, 4171.281738, 4156.410156, 4183.589844, 4166.153809, 4186.666504, 4204.102539, 4216.922852, 4202.563965, 4194.358887, 4191.281738, 4173.333008, 4174.358887, 4227.692383, 4125.641113, 0.000000, 8230.000000, 7957.000000, 0.000000, 0.000000, 0.000000, 0.000000, 526.153839, 1545658548.088154, 4.000000, 4.000000, 4.000000, 4.000000, 4.000000, 4.000000, 4.000000, 4.000000, 4.000000, 4.000000, 4.000000, 4.000000, 4.000000, 4.000000, 4.000000, 4.000000
44.000000, 0.000000, 4163.076660, 4153.333008, 4175.897461, 4168.205078, 4181.025391, 4203.076660, 4222.051270, 4217.948730, 4197.436035, 4186.153809, 4161.025391, 4172.820313, 4216.922852, 4116.922852, 0.000000, 8230.000000, 7957.000000, 0.000000, 0.000000, 0.000000, 0.000000, 533.846130, 1545658548.095846, 4.000000, 4.000000, 4.000000, 4.000000, 4.000000, 4.000000, 4.000000, 4.000000, 4.000000, 4.000000, 4.000000, 4.000000, 4.000000, 4.000000, 4.000000, 4.000000
45.000000, 0.000000, 4151.281738, 4142.563965, 4161.538574, 4158.461426, 4171.281738, 4193.846191, 4214.871582, 4211.281738, 4183.589844, 4165.641113, 4141.538574, 4158.974121, 4195.897461, 4104.102539, 0.000000, 8232.000000, 7946.000000, 0.000000, 0.000000, 0.000000, 0.000000, 541.538452, 1545658548.103539, 4.000000, 4.000000, 4.000000, 4.000000, 4.000000, 4.000000, 4.000000, 4.000000, 4.000000, 4.000000, 4.000000, 4.000000, 4.000000, 4.000000, 4.000000, 4.000000
46.000000, 0.000000, 4161.538574, 4157.436035, 4171.281738, 4166.153809, 4189.743652, 4204.615234, 4217.948730, 4214.871582, 4190.769043, 4175.384277, 4150.769043, 4161.025391, 4195.384277, 4111.281738, 0.000000, 8232.000000, 7946.000000, 0.000000, 0.000000, 0.000000, 0.000000, 549.743591, 1545658548.111744, 4.000000, 4.000000, 4.000000, 4.000000, 4.000000, 4.000000, 4.000000, 4.000000, 4.000000, 4.000000, 4.000000, 4.000000, 4.000000, 4.000000, 4.000000, 4.000000
47.000000, 0.000000, 4173.846191, 4178.461426, 4183.589844, 4186.666504, 4204.102539, 4208.205078, 4215.384277, 4195.384277, 4184.615234, 4180.000000, 4159.487305, 4173.333008, 4200.000000, 4118.974121, 0.000000, 8228.000000, 7930.000000, 0.000000, 0.000000, 0.000000, 0.000000, 557.435883, 1545658548.119436, 4.000000, 4.000000, 4.000000, 4.000000, 4.000000, 4.000000, 4.000000, 4.000000, 4.000000, 4.000000, 4.000000, 4.000000, 4.000000, 4.000000, 4.000000, 4.000000
48.000000, 0.000000, 4164.615234, 4172.820313, 4176.922852, 4180.512695, 4186.153809, 4196.922852, 4202.051270, 4191.281738, 4171.281738, 4161.538574, 4147.179199, 4169.743652, 4190.256348, 4111.281738, 0.000000, 8228.000000, 7930.000000, 0.000000, 0.000000, 0.000000, 0.000000, 565.128204, 1545658548.127128, 4.000000, 4.000000, 4.000000, 4.000000, 4.000000, 4.000000, 4.000000, 4.000000, 4.000000, 4.000000, 4.000000, 4.000000, 4.000000, 4.000000, 4.000000, 4.000000
49.000000, 0.000000, 4152.307617, 4162.051270, 4168.205078, 4162.051270, 4174.358887, 4195.384277, 4197.948730, 4197.436035, 4175.897461, 4158.974121, 4142.563965, 4162.563965, 4182.051270, 4105.641113, 0.000000, 8233.000000, 7875.000000, 0.000000, 0.000000, 0.000000, 0.000000, 572.820496, 1545658548.134820, 4.000000, 4.000000, 4.000000, 4.000000, 4.000000, 4.000000, 4.000000, 4.000000, 4.000000, 4.000000, 4.000000, 4.000000, 4.000000, 4.000000, 4.000000, 4.000000
50.000000, 0.000000, 4158.974121, 4167.179199, 4169.230469, 4168.717773, 4185.127930, 4196.922852, 4200.000000, 4173.333008, 4176.410156, 4168.717773, 4152.307617, 4166.153809, 4185.641113, 4108.205078, 0.000000, 8233.000000, 7875.000000, 0.000000, 0.000000, 0.000000, 0.000000, 580.512817, 1545658548.142513, 4.000000, 4.000000, 4.000000, 4.000000, 4.000000, 4.000000, 4.000000, 4.000000, 4.000000, 4.000000, 4.000000, 4.000000, 4.000000, 4.000000, 4.000000, 4.000000
51.000000, 0.000000, 4174.358887, 4177.436035, 4181.025391, 4186.153809, 4190.256348, 4197.436035, 4204.102539, 4176.410156, 4181.025391, 4178.461426, 4166.153809, 4173.333008, 4191.281738, 4115.897461, 0.000000, 8237.000000, 7854.000000, 0.000000, 0.000000, 0.000000, 0.000000, 588.205109, 1545658548.150205, 4.000000, 4.000000, 4.000000, 4.000000, 4.000000, 4.000000, 4.000000, 4.000000, 4.000000, 4.000000, 4.000000, 4.000000, 4.000000, 4.000000, 4.000000, 4.000000
52.000000, 0.000000, 4174.358887, 4178.974121, 4187.179199, 4186.666504, 4183.589844, 4196.410156, 4203.076660, 4199.487305, 4189.743652, 4184.102539, 4170.769043, 4174.871582, 4187.692383, 4118.461426, 0.000000, 8237.000000, 7854.000000, 0.000000, 0.000000, 0.000000, 0.000000, 595.897430, 1545658548.157897, 4.000000, 4.000000, 4.000000, 4.000000, 4.000000, 4.000000, 4.000000, 4.000000, 4.000000, 4.000000, 4.000000, 4.000000, 4.000000, 4.000000, 4.000000, 4.000000
53.000000, 0.000000, 4158.974121, 4168.205078, 4172.820313, 4173.333008, 4173.333008, 4184.615234, 4191.794922, 4174.871582, 4171.281738, 4169.743652, 4155.384277, 4163.076660, 4169.230469, 4104.615234, 0.000000, 8249.000000, 7882.000000, 0.000000, 0.000000, 0.000000, 0.000000, 603.589722, 1545658548.165590, 4.000000, 4.000000, 4.000000, 4.000000, 4.000000, 4.000000, 4.000000, 4.000000, 4.000000, 4.000000, 4.000000, 4.000000, 4.000000, 4.000000, 4.000000, 4.000000
54.000000, 0.000000, 4140.000000, 4150.256348, 4152.307617, 4150.256348, 4156.410156, 4168.717773, 4180.512695, 4155.384277, 4152.820313, 4150.769043, 4132.307617, 4144.615234, 4145.641113, 4084.102539, 0.000000, 8249.000000, 7882.000000, 0.000000, 0.000000, 0.000000, 0.000000, 611.282043, 1545658548.173282, 4.000000, 4.000000, 4.000000, 4.000000, 4.000000, 4.000000, 4.000000, 4.000000, 4.000000, 4.000000, 4.000000, 4.000000, 4.000000, 4.000000, 4.000000, 4.000000
55.000000, 0.000000, 4125.641113, 4133.333008, 4141.538574, 4130.256348, 4140.000000, 4157.948730, 4171.281738, 4188.717773, 4162.051270, 4148.717773, 4117.436035, 4133.846191, 4132.307617, 4074.358887, 0.000000, 8254.000000, 7900.000000, 0.000000, 0.000000, 0.000000, 0.000000, 618.974335, 1545658548.180974, 4.000000, 4.000000, 4.000000, 4.000000, 4.000000, 4.000000, 4.000000, 4.000000, 4.000000, 4.000000, 4.000000, 4.000000, 4.000000, 4.000000, 4.000000, 4.000000
56.000000, 0.000000, 4118.461426, 4123.589844, 4132.820313, 4126.666504, 4134.358887, 4152.820313, 4165.641113, 4186.666504, 4154.871582, 4140.512695, 4111.281738, 4128.205078, 4125.641113, 4069.743408, 0.000000, 8254.000000, 7900.000000, 0.000000, 0.000000, 0.000000, 0.000000, 626.666656, 1545658548.188667, 4.000000, 4.000000, 4.000000, 4.000000, 4.000000, 4.000000, 4.000000, 4.000000, 4.000000, 4.000000, 4.000000, 4.000000, 4.000000, 4.000000, 4.000000, 4.000000
57.000000, 0.000000, 4116.922852, 4120.512695, 4127.692383, 4128.717773, 4139.487305, 4151.794922, 4165.641113, 4149.230469, 4129.230469, 4128.717773, 4106.666504, 4125.641113, 4120.512695, 4066.153809, 0.000000, 8259.000000, 7925.000000, 0.000000, 0.000000, 0.000000, 0.000000, 634.871765, 1545658548.196872, 4.000000, 4.000000, 4.000000, 4.000000, 4.000000, 4.000000, 4.000000, 4.000000, 4.000000, 4.000000, 4.000000, 4.000000, 4.000000, 4.000000, 4.000000, 4.000000
58.000000, 0.000000, 4131.281738, 4139.487305, 4143.076660, 4145.127930, 4163.076660, 4165.127930, 4174.358887, 4162.563965, 4142.563965, 4141.538574, 4114.871582, 4140.000000, 4132.820313, 4077.435791, 0.000000, 8259.000000, 7925.000000, 0.000000, 0.000000, 0.000000, 0.000000, 642.564087, 1545658548.204564, 4.000000, 4.000000, 4.000000, 4.000000, 4.000000, 4.000000, 4.000000, 4.000000, 4.000000, 4.000000, 4.000000, 4.000000, 4.000000, 4.000000, 4.000000, 4.000000
59.000000, 0.000000, 4151.281738, 4161.025391, 4159.487305, 4163.589844, 4178.461426, 4183.076660, 4183.076660, 4185.641113, 4167.692383, 4156.922852, 4129.230469, 4154.871582, 4152.820313, 4091.281982, 0.000000, 8260.000000, 7929.000000, 0.000000, 0.000000, 0.000000, 0.000000, 650.256409, 1545658548.212256, 4.000000, 4.000000, 4.000000, 4.000000, 4.000000, 4.000000, 4.000000, 4.000000, 4.000000, 4.000000, 4.000000, 4.000000, 4.000000, 4.000000, 4.000000, 4.000000
60.000000, 0.000000, 4151.794922, 4157.948730, 4156.922852, 4160.512695, 4165.641113, 4182.563965, 4183.589844, 4173.846191, 4161.025391, 4153.846191, 4130.256348, 4151.794922, 4155.384277, 4090.256348, 0.000000, 8260.000000, 7929.000000, 0.000000, 0.000000, 0.000000, 0.000000, 657.948700, 1545658548.219949, 4.000000, 4.000000, 4.000000, 4.000000, 4.000000, 4.000000, 4.000000, 4.000000, 4.000000, 4.000000, 4.000000, 4.000000, 4.000000, 4.000000, 4.000000, 4.000000
61.000000, 0.000000, 4148.717773, 4154.358887, 4153.333008, 4154.358887, 4162.563965, 4173.846191, 4186.666504, 4172.307617, 4154.358887, 4152.820313, 4130.256348, 4152.820313, 4153.846191, 4090.769043, 0.000000, 8262.000000, 7931.000000, 0.000000, 0.000000, 0.000000, 0.000000, 665.641022, 1545658548.227641, 4.000000, 4.000000, 4.000000, 4.000000, 4.000000, 4.000000, 4.000000, 4.000000, 4.000000, 4.000000, 4.000000, 4.000000, 4.000000, 4.000000, 4.000000, 4.000000
62.000000, 0.000000, 4149.230469, 4154.871582, 4156.410156, 4152.820313, 4170.256348, 4176.410156, 4186.666504, 4190.256348, 4164.615234, 4157.948730, 4130.769043, 4155.897461, 4150.256348, 4091.794678, 0.000000, 8262.000000, 7931.000000, 0.000000, 0.000000, 0.000000, 0.000000, 673.333313, 1545658548.235333, 4.000000, 4.000000, 4.000000, 4.000000, 4.000000, 4.000000, 4.000000, 4.000000, 4.000000, 4.000000, 4.000000, 4.000000, 4.000000, 4.000000, 4.000000, 4.000000
63.000000, 0.000000, 4136.922852, 4140.000000, 4148.205078, 4142.563965, 4158.974121, 4175.897461, 4174.871582, 4180.512695, 4159.487305, 4147.692383, 4119.487305, 4144.615234, 4137.436035, 4082.051270, 0.000000, 8266.000000, 7934.000000, 0.000000, 0.000000, 0.000000, 0.000000, 681.025635, 1545658548.243026, 4.000000, 4.000000, 4.000000, 4.000000, 4.000000, 4.000000, 4.000000, 4.000000, 4.000000, 4.000000, 4.000000, 4.000000, 4.000000, 4.000000, 4.000000, 4.000000
64.000000, 0.000000, 4127.692383, 4130.256348, 4138.974121, 4137.436035, 4145.127930, 4164.102539, 4172.820313, 4173.333008, 4153.846191, 4142.563965, 4117.948730, 4140.512695, 4137.436035, 4075.897217, 3321.000000, 8266.000000, 7934.000000, 0.000000, 0.000000, 0.000000, 0.000000, 688.717926, 1545658548.250718, 4.000000, 4.000000, 4.000000, 4.000000, 4.000000, 4.000000, 4.000000, 4.000000, 4.000000, 4.000000, 4.000000, 4.000000, 4.000000, 4.000000, 4.000000, 4.000000
65.000000, 0.000000, 4144.102539, 4147.179199, 4151.281738, 4151.794922, 4155.384277, 4165.641113, 4189.230469, 4198.461426, 4173.333008, 4161.538574, 4139.487305, 4161.538574, 4151.794922, 4089.743408, 3512.000000, 8272.000000, 7947.000000, 0.000000, 0.000000, 0.000000, 0.000000, 696.410248, 1545658548.258410, 4.000000, 4.000000, 4.000000, 4.000000, 4.000000, 4.000000, 4.000000, 4.000000, 4.000000, 4.000000, 4.000000, 4.000000, 4.000000, 4.000000, 4.000000, 4.000000
66.000000, 0.000000, 4160.000000, 4163.589844, 4168.205078, 4164.102539, 4170.769043, 4177.436035, 4192.820313, 4203.589844, 4185.127930, 4170.256348, 4152.820313, 4177.948730, 4164.615234, 4108.205078, 3304.000000, 8272.000000, 7947.000000, 0.000000, 0.000000, 0.000000, 0.000000, 704.102539, 1545658548.266103, 4.000000, 4.000000, 4.000000, 4.000000, 4.000000, 4.000000, 4.000000, 4.000000, 4.000000, 4.000000, 4.000000, 4.000000, 4.000000, 4.000000, 4.000000, 4.000000
67.000000, 0.000000, 4152.820313, 4158.461426, 4168.205078, 4160.000000, 4166.666504, 4175.897461, 4187.179199, 4184.102539, 4171.281738, 4155.897461, 4143.589844, 4170.769043, 4167.179199, 4107.692383, 3566.000000, 8276.000000, 7954.000000, 0.000000, 0.000000, 0.000000, 0.000000, 711.794861, 1545658548.273795, 4.000000, 4.000000, 4.000000, 4.000000, 4.000000, 4.000000, 4.000000, 4.000000, 4.000000, 4.000000, 4.000000, 4.000000, 4.000000, 4.000000, 4.000000, 4.000000
68.000000, 0.000000, 4142.563965, 4147.179199, 4157.436035, 4147.692383, 4155.897461, 4171.281738, 4193.333008, 4183.076660, 4160.000000, 4148.717773, 4137.436035, 4164.615234, 4160.000000, 4094.871582, 3374.000000, 8276.000000, 7954.000000, 0.000000, 0.000000, 0.000000, 0.000000, 719.999969, 1545658548.282000, 4.000000, 4.000000, 4.000000, 4.000000, 4.000000, 4.000000, 4.000000, 4.000000, 4.000000, 4.000000, 4.000000, 4.000000, 4.000000, 4.000000, 4.000000, 4.000000
69.000000, 0.000000, 4144.615234, 4144.102539, 4153.846191, 4146.666504, 4160.512695, 4172.820313, 4190.769043, 4203.076660, 4165.127930, 4154.871582, 4138.974121, 4170.769043, 4151.794922, 4094.871582, 3471.000000, 8290.000000, 7960.000000, 0.000000, 0.000000, 0.000000, 0.000000, 727.692261, 1545658548.289692, 4.000000, 4.000000, 4.000000, 4.000000, 4.000000, 4.000000, 4.000000, 4.000000, 4.000000, 4.000000, 4.000000, 4.000000, 4.000000, 4.000000, 4.000000, 4.000000
70.000000, 0.000000, 4154.358887, 4154.871582, 4163.076660, 4160.000000, 4170.769043, 4174.358887, 4177.436035, 4208.717773, 4174.358887, 4160.512695, 4142.051270, 4178.974121, 4160.000000, 4107.692383, 3394.000000, 8290.000000, 7960.000000, 0.000000, 0.000000, 0.000000, 0.000000, 735.384583, 1545658548.297385, 4.000000, 4.000000, 4.000000, 4.000000, 4.000000, 4.000000, 4.000000, 4.000000, 4.000000, 4.000000, 4.000000, 4.000000, 4.000000, 4.000000, 4.000000, 4.000000
71.000000, 0.000000, 4137.948730, 4145.127930, 4152.307617, 4144.102539, 4154.358887, 4155.384277, 4152.307617, 4168.717773, 4156.410156, 4148.717773, 4123.589844, 4161.538574, 4147.179199, 4091.281982, 3194.000000, 8290.000000, 7957.000000, 0.000000, 0.000000, 0.000000, 0.000000, 743.076904, 1545658548.305077, 4.000000, 4.000000, 4.000000, 4.000000, 4.000000, 4.000000, 4.000000, 4.000000, 4.000000, 4.000000, 4.000000, 4.000000, 4.000000, 4.000000, 4.000000, 4.000000
72.000000, 0.000000, 4098.461426, 4103.076660, 4115.384277, 4102.563965, 4122.051270, 4122.051270, 4121.538574, 4122.563965, 4113.846191, 4116.922852, 4083.076904, 4125.127930, 4100.512695, 4050.256348, 3404.000000, 8290.000000, 7957.000000, 0.000000, 0.000000, 0.000000, 0.000000, 750.769226, 1545658548.312769, 4.000000, 4.000000, 4.000000, 4.000000, 4.000000, 4.000000, 4.000000, 4.000000, 4.000000, 4.000000, 4.000000, 4.000000, 4.000000, 4.000000, 4.000000, 4.000000
73.000000, 0.000000, 4107.692383, 4106.153809, 4118.974121, 4112.307617, 4134.358887, 4132.307617, 4140.512695, 4141.538574, 4117.948730, 4116.922852, 4087.179443, 4132.820313, 4100.000000, 4056.923096, 3222.000000, 8286.000000, 7984.000000, 0.000000, 0.000000, 0.000000, 0.000000, 758.461548, 1545658548.320462, 4.000000, 4.000000, 4.000000, 4.000000, 4.000000, 4.000000, 4.000000, 4.000000, 4.000000, 4.000000, 4.000000, 4.000000, 4.000000, 4.000000, 4.000000, 4.000000
74.000000, 0.000000, 4132.820313, 4133.333008, 4138.974121, 4135.384277, 4151.281738, 4148.717773, 4165.127930, 4167.692383, 4138.461426, 4131.281738, 4109.743652, 4152.820313, 4123.589844, 4080.000000, 3538.000000, 8286.000000, 7984.000000, 0.000000, 0.000000, 0.000000, 0.000000, 766.153809, 1545658548.328154, 4.000000, 4.000000, 4.000000, 4.000000, 4.000000, 4.000000, 4.000000, 4.000000, 4.000000, 4.000000, 4.000000, 4.000000, 4.000000, 4.000000, 4.000000, 4.000000
75.000000, 0.000000, 4083.589600, 4083.589600, 4091.794678, 4082.051270, 4100.000000, 4096.410156, 4112.307617, 4116.922852, 4087.179443, 4084.615234, 4061.538330, 4106.666504, 4071.794678, 4034.358887, 3264.000000, 8284.000000, 8005.000000, 0.000000, 0.000000, 0.000000, 0.000000, 773.846130, 1545658548.335846, 4.000000, 4.000000, 4.000000, 4.000000, 4.000000, 4.000000, 4.000000, 4.000000, 4.000000, 4.000000, 4.000000, 4.000000, 4.000000, 4.000000, 4.000000, 4.000000
76.000000, 0.000000, 4043.589600, 4037.435791, 4051.281982, 4042.563965, 4064.615234, 4061.538330, 4081.538330, 4091.794678, 4048.205078, 4049.743408, 4021.025635, 4068.717773, 4024.102539, 3993.333252, 3514.000000, 8284.000000, 8005.000000, 0.000000, 0.000000, 0.000000, 0.000000, 781.538452, 1545658548.343539, 4.000000, 4.000000, 4.000000, 4.000000, 4.000000, 4.000000, 4.000000, 4.000000, 4.000000, 4.000000, 4.000000, 4.000000, 4.000000, 4.000000, 4.000000, 4.000000
77.000000, 0.000000, 4087.179443, 4084.102539, 4091.281982, 4086.666504, 4104.102539, 4106.666504, 4132.307617, 4134.358887, 4089.743408, 4090.256348, 4062.051270, 4108.717773, 4066.153809, 4034.358887, 3151.000000, 8278.000000, 8053.000000, 0.000000, 0.000000, 0.000000, 0.000000, 789.230774, 1545658548.351231, 4.000000, 4.000000, 4.000000, 4.000000, 4.000000, 4.000000, 4.000000, 4.000000, 4.000000, 4.000000, 4.000000, 4.000000, 4.000000, 4.000000, 4.000000, 4.000000
78.000000, 0.000000, 4112.820313, 4116.922852, 4117.436035, 4113.846191, 4122.051270, 4125.127930, 4147.692383, 4152.307617, 4117.436035, 4115.384277, 4088.205078, 4132.307617, 4097.436035, 4065.640869, 3538.000000, 8278.000000, 8053.000000, 0.000000, 0.000000, 0.000000, 0.000000, 796.923035, 1545658548.358923, 4.000000, 4.000000, 4.000000, 4.000000, 4.000000, 4.000000, 4.000000, 4.000000, 4.000000, 4.000000, 4.000000, 4.000000, 4.000000, 4.000000, 4.000000, 4.000000
79.000000, 0.000000, 4094.358887, 4094.358887, 4099.487305, 4097.948730, 4104.102539, 4104.102539, 4121.538574, 4142.051270, 4106.153809, 4103.076660, 4074.358887, 4116.410156, 4079.487061, 4048.717773, 3264.000000, 8290.000000, 8070.000000, 0.000000, 0.000000, 0.000000, 0.000000, 805.128174, 1545658548.367128, 4.000000, 4.000000, 4.000000, 4.000000, 4.000000, 4.000000, 4.000000, 4.000000, 4.000000, 4.000000, 4.000000, 4.000000, 4.000000, 4.000000, 4.000000, 4.000000
80.000000, 0.000000, 4113.846191, 4107.692383, 4116.922852, 4116.410156, 4127.692383, 4126.666504, 4143.076660, 4157.436035, 4124.615234, 4124.615234, 4097.948730, 4135.897461, 4100.000000, 4066.153809, 3514.000000, 8290.000000, 8070.000000, 0.000000, 0.000000, 0.000000, 0.000000, 812.820496, 1545658548.374820, 4.000000, 4.000000, 4.000000, 4.000000, 4.000000, 4.000000, 4.000000, 4.000000, 4.000000, 4.000000, 4.000000, 4.000000, 4.000000, 4.000000, 4.000000, 4.000000
81.000000, 0.000000, 4126.666504, 4119.487305, 4131.281738, 4129.743652, 4134.358887, 4135.384277, 4151.281738, 4150.256348, 4129.743652, 4134.871582, 4105.641113, 4148.205078, 4116.410156, 4083.589600, 3151.000000, 8313.000000, 8070.000000, 0.000000, 0.000000, 0.000000, 0.000000, 820.512817, 1545658548.382513, 4.000000, 4.000000, 4.000000, 4.000000, 4.000000, 4.000000, 4.000000, 4.000000, 4.000000, 4.000000, 4.000000, 4.000000, 4.000000, 4.000000, 4.000000, 4.000000
82.000000, 0.000000, 4093.845947, 4084.615234, 4101.025391, 4095.384521, 4094.871582, 4092.307617, 4107.179199, 4107.692383, 4088.205078, 4094.358887, 4064.615234, 4115.897461, 4075.897217, 4052.307617, 3538.000000, 8313.000000, 8070.000000, 0.000000, 0.000000, 0.000000, 0.000000, 828.205078, 1545658548.390205, 4.000000, 4.000000, 4.000000, 4.000000, 4.000000, 4.000000, 4.000000, 4.000000, 4.000000, 4.000000, 4.000000, 4.000000, 4.000000, 4.000000, 4.000000, 4.000000
83.000000, 0.000000, 4104.615234, 4098.461426, 4111.794922, 4103.589844, 4112.820313, 4100.000000, 4112.307617, 4114.871582, 4093.333252, 4097.948730, 4076.410156, 4127.179199, 4076.410156, 4063.076904, 3264.000000, 8320.000000, 8067.000000, 0.000000, 0.000000, 0.000000, 0.000000, 835.897400, 1545658548.397897, 4.000000, 4.000000, 4.000000, 4.000000, 4.000000, 4.000000, 4.000000, 4.000000, 4.000000, 4.000000, 4.000000, 4.000000, 4.000000, 4.000000, 4.000000, 4.000000
84.000000, 0.000000, 4148.205078, 4146.666504, 4154.358887, 4148.205078, 4156.922852, 4144.615234, 4155.384277, 4156.410156, 4137.948730, 4146.153809, 4122.051270, 4170.769043, 4120.512695, 4112.307617, 3514.000000, 8320.000000, 8067.000000, 0.000000, 0.000000, 0.000000, 0.000000, 843.589722, 1545658548.405590, 4.000000, 4.000000, 4.000000, 4.000000, 4.000000, 4.000000, 4.000000, 4.000000, 4.000000, 4.000000, 4.000000, 4.000000, 4.000000, 4.000000, 4.000000, 4.000000
85.000000, 0.000000, 4142.051270, 4132.820313, 4145.641113, 4137.948730, 4142.051270, 4141.025391, 4146.666504, 4158.461426, 4133.333008, 4140.000000, 4111.281738, 4163.076660, 4109.743652, 4107.179199, 3151.000000, 8329.000000, 8052.000000, 0.000000, 0.000000, 0.000000, 0.000000, 851.282043, 1545658548.413282, 4.000000, 4.000000, 4.000000, 4.000000, 4.000000, 4.000000, 4.000000, 4.000000, 4.000000, 4.000000, 4.000000, 4.000000, 4.000000, 4.000000, 4.000000, 4.000000
86.000000, 0.000000, 4126.153809, 4109.743652, 4127.179199, 4117.948730, 4129.230469, 4131.794922, 4132.307617, 4150.769043, 4117.436035, 4113.846191, 4096.410156, 4145.641113, 4083.076904, 4088.205078, 3538.000000, 8329.000000, 8052.000000, 0.000000, 0.000000, 0.000000, 0.000000, 858.974365, 1545658548.420974, 4.000000, 4.000000, 4.000000, 4.000000, 4.000000, 4.000000, 4.000000, 4.000000, 4.000000, 4.000000, 4.000000, 4.000000, 4.000000, 4.000000, 4.000000, 4.000000
87.000000, 0.000000, 4151.281738, 4142.051270, 4152.307617, 4148.717773, 4156.922852, 4156.922852, 4164.615234, 4174.871582, 4148.717773, 4141.538574, 4131.281738, 4170.256348, 4111.794922, 4118.974121, 3264.000000, 8322.000000, 8041.000000, 0.000000, 0.000000, 0.000000, 0.000000, 866.666626, 1545658548.428667, 4.000000, 4.000000, 4.000000, 4.000000, 4.000000, 4.000000, 4.000000, 4.000000, 4.000000, 4.000000, 4.000000, 4.000000, 4.000000, 4.000000, 4.000000, 4.000000
88.000000, 0.000000, 4169.743652, 4165.641113, 4171.281738, 4170.256348, 4168.717773, 4166.666504, 4180.000000, 4189.743652, 4171.281738, 4170.256348, 4150.256348, 4185.641113, 4135.897461, 4141.025391, 3514.000000, 8322.000000, 8041.000000, 0.000000, 0.000000, 0.000000, 0.000000, 874.358948, 1545658548.436359, 4.000000, 4.000000, 4.000000, 4.000000, 4.000000, 4.000000, 4.000000, 4.000000, 4.000000, 4.000000, 4.000000, 4.000000, 4.000000, 4.000000, 4.000000, 4.000000
89.000000, 0.000000, 4135.384277, 4126.666504, 4136.410156, 4134.871582, 4144.102539, 4139.487305, 4141.538574, 4150.769043, 4131.794922, 4134.358887, 4107.179199, 4150.769043, 4089.230713, 4102.563965, 3151.000000, 8322.000000, 8032.000000, 0.000000, 0.000000, 0.000000, 0.000000, 882.051270, 1545658548.444051, 4.000000, 4.000000, 4.000000, 4.000000, 4.000000, 4.000000, 4.000000, 4.000000, 4.000000, 4.000000, 4.000000, 4.000000, 4.000000, 4.000000, 4.000000, 4.000000
90.000000, 0.000000, 4109.743652, 4105.641113, 4109.230469, 4115.897461, 4136.922852, 4126.666504, 4122.051270, 4125.127930, 4100.512695, 4101.538574, 4076.410156, 4125.127930, 4052.307617, 4075.384521, 3538.000000, 8322.000000, 8032.000000, 0.000000, 0.000000, 0.000000, 0.000000, 890.256409, 1545658548.452256, 4.000000, 4.000000, 4.000000, 4.000000, 4.000000, 4.000000, 4.000000, 4.000000, 4.000000, 4.000000, 4.000000, 4.000000, 4.000000, 4.000000, 4.000000, 4.000000
91.000000, 0.000000, 4153.333008, 4157.436035, 4147.692383, 4160.000000, 4175.897461, 4163.076660, 4166.666504, 4168.717773, 4140.512695, 4143.076660, 4123.076660, 4163.076660, 4102.563965, 4121.025391, 3264.000000, 8338.000000, 8026.000000, 0.000000, 0.000000, 0.000000, 0.000000, 897.948669, 1545658548.459949, 4.000000, 4.000000, 4.000000, 4.000000, 4.000000, 4.000000, 4.000000, 4.000000, 4.000000, 4.000000, 4.000000, 4.000000, 4.000000, 4.000000, 4.000000, 4.000000
92.000000, 0.000000, 4186.153809, 4178.461426, 4185.641113, 4184.102539, 4196.410156, 4186.666504, 4200.512695, 4211.281738, 4182.051270, 4185.127930, 4165.641113, 4197.436035, 4143.589844, 4158.461426, 3514.000000, 8338.000000, 8026.000000, 0.000000, 0.000000, 0.000000, 0.000000, 905.640991, 1545658548.467641, 4.000000, 4.000000, 4.000000, 4.000000, 4.000000, 4.000000, 4.000000, 4.000000, 4.000000, 4.000000, 4.000000, 4.000000, 4.000000, 4.000000, 4.000000, 4.000000
93.000000, 0.000000, 4148.717773, 4130.769043, 4155.384277, 4147.692383, 4157.948730, 4152.307617, 4170.769043, 4193.333008, 4161.538574, 4157.436035, 4127.692383, 4169.743652, 4100.512695, 4125.127930, 3151.000000, 8395.000000, 7999.000000, 0.000000, 0.000000, 0.000000, 0.000000, 913.333313, 1545658548.475333, 4.000000, 4.000000, 4.000000, 4.000000, 4.000000, 4.000000, 4.000000, 4.000000, 4.000000, 4.000000, 4.000000, 4.000000, 4.000000, 4.000000, 4.000000, 4.000000
94.000000, 0.000000, 4128.717773, 4126.666504, 4128.717773, 4132.820313, 4136.922852, 4129.230469, 4147.692383, 4172.307617, 4140.000000, 4129.743652, 4092.820313, 4143.589844, 4071.281982, 4102.051270, 3538.000000, 8395.000000, 7999.000000, 0.000000, 0.000000, 0.000000, 0.000000, 921.025635, 1545658548.483026, 4.000000, 4.000000, 4.000000, 4.000000, 4.000000, 4.000000, 4.000000, 4.000000, 4.000000, 4.000000, 4.000000, 4.000000, 4.000000, 4.000000, 4.000000, 4.000000
95.000000, 0.000000, 4152.820313, 4168.205078, 4150.769043, 4159.487305, 4164.615234, 4151.794922, 4166.666504, 4177.436035, 4156.922852, 4146.666504, 4110.769043, 4157.948730, 4092.820313, 4124.102539, 3264.000000, 8424.000000, 8010.000000, 0.000000, 0.000000, 0.000000, 0.000000, 928.717957, 1545658548.490718, 4.000000, 4.000000, 4.000000, 4.000000, 4.000000, 4.000000, 4.000000, 4.000000, 4.000000, 4.000000, 4.000000, 4.000000, 4.000000, 4.000000, 4.000000, 4.000000
96.000000, 0.000000, 4151.281738, 4168.717773, 4151.794922, 4159.487305, 4175.897461, 4162.563965, 4168.205078, 4161.538574, 4157.948730, 4150.769043, 4108.717773, 4155.897461, 4083.589600, 4121.025391, 3514.000000, 8424.000000, 8010.000000, 0.000000, 0.000000, 0.000000, 0.000000, 936.410217, 1545658548.498410, 4.000000, 4.000000, 4.000000, 4.000000, 4.000000, 4.000000, 4.000000, 4.000000, 4.000000, 4.000000, 4.000000, 4.000000, 4.000000, 4.000000, 4.000000, 4.000000
97.000000, 0.000000, 4130.256348, 4152.820313, 4127.692383, 4142.563965, 4161.538574, 4150.256348, 4148.205078, 4142.563965, 4136.410156, 4128.205078, 4072.820313, 4133.333008, 4047.692139, 4097.436035, 3151.000000, 8465.000000, 8080.000000, 0.000000, 0.000000, 0.000000, 0.000000, 944.102539, 1545658548.506103, 4.000000, 4.000000, 4.000000, 4.000000, 4.000000, 4.000000, 4.000000, 4.000000, 4.000000, 4.000000, 4.000000, 4.000000, 4.000000, 4.000000, 4.000000, 4.000000
98.000000, 0.000000, 4130.769043, 4158.974121, 4126.666504, 4149.743652, 4164.102539, 4149.743652, 4152.820313, 4148.717773, 4128.717773, 4115.897461, 4060.000000, 4130.256348, 4040.000000, 4097.436035, 3538.000000, 8465.000000, 8080.000000, 0.000000, 0.000000, 0.000000, 0.000000, 951.794861, 1545658548.513795, 4.000000, 4.000000, 4.000000, 4.000000, 4.000000, 4.000000, 4.000000, 4.000000, 4.000000, 4.000000, 4.000000, 4.000000, 4.000000, 4.000000, 4.000000, 4.000000
99.000000, 0.000000, 4148.205078, 4169.743652, 4143.589844, 4166.153809, 4187.179199, 4168.205078, 4175.897461, 4159.487305, 4137.948730, 4125.127930, 4080.000000, 4143.076660, 4061.025635, 4116.922852, 3264.000000, 8468.000000, 8098.000000, 0.000000, 0.000000, 0.000000, 0.000000, 959.487183, 1545658548.521487, 4.000000, 4.000000, 4.000000, 4.000000, 4.000000, 4.000000, 4.000000, 4.000000, 4.000000, 4.000000, 4.000000, 4.000000, 4.000000, 4.000000, 4.000000, 4.000000
100.000000, 0.000000, 4151.281738, 4170.769043, 4141.025391, 4160.000000, 4183.076660, 4167.179199, 4172.820313, 4162.563965, 4140.512695, 4131.794922, 4087.692139, 4144.615234, 4069.230713, 4122.051270, 3514.000000, 8468.000000, 8098.000000, 0.000000, 0.000000, 0.000000, 0.000000, 967.179443, 1545658548.529179, 4.000000, 4.000000, 4.000000, 4.000000, 4.000000, 4.000000, 4.000000, 4.000000, 4.000000, 4.000000, 4.000000, 4.000000, 4.000000, 4.000000, 4.000000, 4.000000
101.000000, 0.000000, 4140.000000, 4156.410156, 4128.205078, 4144.615234, 4154.871582, 4143.076660, 4153.333008, 4166.153809, 4135.897461, 4123.589844, 4072.820313, 4135.897461, 4055.897217, 4112.307617, 3151.000000, 8448.000000, 8096.000000, 0.000000, 0.000000, 0.000000, 0.000000, 975.384583, 1545658548.537385, 4.000000, 4.000000, 4.000000, 4.000000, 4.000000, 4.000000, 4.000000, 4.000000, 4.000000, 4.000000, 4.000000, 4.000000, 4.000000, 4.000000, 4.000000, 4.000000
102.000000, 0.000000, 4143.076660, 4153.333008, 4137.948730, 4151.794922, 4155.384277, 4143.076660, 4159.487305, 4174.358887, 4146.153809, 4124.615234, 4078.974365, 4144.102539, 4055.897217, 4120.512695, 3538.000000, 8448.000000, 8096.000000, 0.000000, 0.000000, 0.000000, 0.000000, 983.076904, 1545658548.545077, 4.000000, 4.000000, 4.000000, 4.000000, 4.000000, 4.000000, 4.000000, 4.000000, 4.000000, 4.000000, 4.000000, 4.000000, 4.000000, 4.000000, 4.000000, 4.000000
103.000000, 0.000000, 4158.974121, 4169.743652, 4152.820313, 4164.102539, 4166.666504, 4152.820313, 4164.102539, 4175.897461, 4153.846191, 4137.948730, 4100.512695, 4153.846191, 4069.230713, 4140.000000, 3264.000000, 8432.000000, 8109.000000, 0.000000, 0.000000, 0.000000, 0.000000, 990.769226, 1545658548.552769, 4.000000, 4.000000, 4.000000, 4.000000, 4.000000, 4.000000, 4.000000, 4.000000, 4.000000, 4.000000, 4.000000, 4.000000, 4.000000, 4.000000, 4.000000, 4.000000
104.000000, 0.000000, 4163.589844, 4176.410156, 4151.794922, 4163.076660, 4161.538574, 4151.281738, 4161.538574, 4174.871582, 4145.127930, 4138.974121, 4103.589844, 4147.692383, 4069.743408, 4141.025391, 3514.000000, 8432.000000, 8109.000000, 0.000000, 0.000000, 0.000000, 0.000000, 998.461487, 1545658548.560462, 4.000000, 4.000000, 4.000000, 4.000000, 4.000000, 4.000000, 4.000000, 4.000000, 4.000000, 4.000000, 4.000000, 4.000000, 4.000000, 4.000000, 4.000000, 4.000000
105.000000, 0.000000, 4163.076660, 4168.717773, 4148.717773, 4166.666504, 4170.256348, 4170.256348, 4193.333008, 4193.333008, 4154.358887, 4138.461426, 4100.512695, 4145.127930, 4066.666504, 4132.820313, 3151.000000, 8406.000000, 8115.000000, 0.000000, 0.000000, 0.000000, 1.000000, 6.153809, 1545658548.568154, 4.000000, 4.000000, 4.000000, 4.000000, 4.000000, 4.000000, 4.000000, 4.000000, 4.000000, 4.000000, 4.000000, 4.000000, 4.000000, 4.000000, 4.000000, 4.000000
106.000000, 0.000000, 4170.769043, 4172.307617, 4154.871582, 4177.436035, 4191.281738, 4192.820313, 4213.333008, 4206.153809, 4168.717773, 4151.794922, 4108.717773, 4153.333008, 4080.512695, 4143.589844, 3538.000000, 8406.000000, 8115.000000, 0.000000, 0.000000, 0.000000, 1.000000, 13.846130, 1545658548.575846, 4.000000, 4.000000, 4.000000, 4.000000, 4.000000, 4.000000, 4.000000, 4.000000, 4.000000, 4.000000, 4.000000, 4.000000, 4.000000, 4.000000, 4.000000, 4.000000
107.000000, 0.000000, 4168.717773, 4177.436035, 4151.281738, 4171.794922, 4185.641113, 4173.846191, 4168.717773, 4187.692383, 4162.051270, 4154.871582, 4107.179199, 4150.256348, 4092.820313, 4153.333008, 3264.000000, 8399.000000, 8114.000000, 0.000000, 0.000000, 0.000000, 1.000000, 22.051270, 1545658548.584051, 4.000000, 4.000000, 4.000000, 4.000000, 4.000000, 4.000000, 4.000000, 4.000000, 4.000000, 4.000000, 4.000000, 4.000000, 4.000000, 4.000000, 4.000000, 4.000000
108.000000, 0.000000, 4164.102539, 4172.820313, 4143.589844, 4161.538574, 4176.410156, 4157.436035, 4142.563965, 4175.384277, 4158.461426, 4149.230469, 4101.025391, 4143.076660, 4106.666504, 4149.230469, 3514.000000, 8399.000000, 8114.000000, 0.000000, 0.000000, 0.000000, 1.000000, 29.743591, 1545658548.591744, 4.000000, 4.000000, 4.000000, 4.000000, 4.000000, 4.000000, 4.000000, 4.000000, 4.000000, 4.000000, 4.000000, 4.000000, 4.000000, 4.000000, 4.000000, 4.000000
109.000000, 0.000000, 4178.974121, 4183.076660, 4156.922852, 4176.922852, 4193.333008, 4185.127930, 4188.717773, 4201.538574, 4185.641113, 4166.153809, 4120.512695, 4157.436035, 4147.692383, 4161.025391, 3151.000000, 8382.000000, 8136.000000, 0.000000, 0.000000, 0.000000, 1.000000, 37.435852, 1545658548.599436, 4.000000, 4.000000, 4.000000, 4.000000, 4.000000, 4.000000, 4.000000, 4.000000, 4.000000, 4.000000, 4.000000, 4.000000, 4.000000, 4.000000, 4.000000, 4.000000
110.000000, 0.000000, 4193.333008, 4200.000000, 4172.307617, 4193.333008, 4205.127930, 4205.641113, 4220.512695, 4226.153809, 4211.794922, 4190.256348, 4142.563965, 4177.948730, 4193.333008, 4183.076660, 3538.000000, 8382.000000, 8136.000000, 0.000000, 0.000000, 0.000000, 1.000000, 45.128174, 1545658548.607128, 4.000000, 4.000000, 4.000000, 4.000000, 4.000000, 4.000000, 4.000000, 4.000000, 4.000000, 4.000000, 4.000000, 4.000000, 4.000000, 4.000000, 4.000000, 4.000000
111.000000, 0.000000, 4193.333008, 4204.615234, 4174.358887, 4193.333008, 4202.051270, 4205.641113, 4212.307617, 4221.538574, 4210.256348, 4192.307617, 4145.127930, 4184.102539, 4215.384277, 4190.256348, 3264.000000, 8373.000000, 8138.000000, 0.000000, 0.000000, 0.000000, 1.000000, 52.820496, 1545658548.614820, 4.000000, 4.000000, 4.000000, 4.000000, 4.000000, 4.000000, 4.000000, 4.000000, 4.000000, 4.000000, 4.000000, 4.000000, 4.000000, 4.000000, 4.000000, 4.000000
112.000000, 0.000000, 4198.974121, 4206.153809, 4183.076660, 4196.922852, 4206.153809, 4217.436035, 4218.974121, 4212.820313, 4202.563965, 4185.127930, 4144.615234, 4184.615234, 4226.153809, 4188.717773, 3514.000000, 8373.000000, 8138.000000, 0.000000, 0.000000, 0.000000, 1.000000, 60.512817, 1545658548.622513, 4.000000, 4.000000, 4.000000, 4.000000, 4.000000, 4.000000, 4.000000, 4.000000, 4.000000, 4.000000, 4.000000, 4.000000, 4.000000, 4.000000, 4.000000, 4.000000
113.000000, 0.000000, 4216.922852, 4223.589844, 4204.615234, 4213.846191, 4223.589844, 4235.384277, 4242.563965, 4224.615234, 4214.871582, 4194.871582, 4154.871582, 4196.410156, 4249.230469, 4200.000000, 3151.000000, 8336.000000, 8146.000000, 0.000000, 0.000000, 0.000000, 1.000000, 68.205078, 1545658548.630205, 4.000000, 4.000000, 4.000000, 4.000000, 4.000000, 4.000000, 4.000000, 4.000000, 4.000000, 4.000000, 4.000000, 4.000000, 4.000000, 4.000000, 4.000000, 4.000000
114.000000, 0.000000, 4223.076660, 4240.000000, 4217.436035, 4228.205078, 4237.436035, 4236.922852, 4248.717773, 4238.461426, 4226.153809, 4208.717773, 4165.127930, 4212.307617, 4268.205078, 4213.333008, 3538.000000, 8336.000000, 8146.000000, 0.000000, 0.000000, 0.000000, 1.000000, 75.897400, 1545658548.637897, 4.000000, 4.000000, 4.000000, 4.000000, 4.000000, 4.000000, 4.000000, 4.000000, 4.000000, 4.000000, 4.000000, 4.000000, 4.000000, 4.000000, 4.000000, 4.000000
115.000000, 0.000000, 4205.127930, 4224.102539, 4203.589844, 4215.897461, 4227.692383, 4220.000000, 4225.641113, 4228.717773, 4207.692383, 4191.281738, 4155.384277, 4204.102539, 4254.358887, 4200.512695, 3264.000000, 8322.000000, 8142.000000, 0.000000, 0.000000, 0.000000, 1.000000, 83.589722, 1545658548.645590, 4.000000, 4.000000, 4.000000, 4.000000, 4.000000, 4.000000, 4.000000, 4.000000, 4.000000, 4.000000, 4.000000, 4.000000, 4.000000, 4.000000, 4.000000, 4.000000
116.000000, 0.000000, 4185.127930, 4197.436035, 4183.076660, 4193.333008, 4209.230469, 4207.179199, 4204.102539, 4221.025391, 4188.717773, 4164.102539, 4136.922852, 4182.563965, 4230.769043, 4180.512695, 3514.000000, 8322.000000, 8142.000000, 0.000000, 0.000000, 0.000000, 1.000000, 91.282043, 1545658548.653282, 4.000000, 4.000000, 4.000000, 4.000000, 4.000000, 4.000000, 4.000000, 4.000000, 4.000000, 4.000000, 4.000000, 4.000000, 4.000000, 4.000000, 4.000000, 4.000000
117.000000, 0.000000, 4200.000000, 4208.717773, 4197.948730, 4206.666504, 4220.000000, 4223.589844, 4223.076660, 4226.153809, 4205.641113, 4180.000000, 4148.717773, 4196.410156, 4247.179199, 4197.436035, 3151.000000, 8323.000000, 8133.000000, 0.000000, 0.000000, 0.000000, 1.000000, 98.974304, 1545658548.660974, 4.000000, 4.000000, 4.000000, 4.000000, 4.000000, 4.000000, 4.000000, 4.000000, 4.000000, 4.000000, 4.000000, 4.000000, 4.000000, 4.000000, 4.000000, 4.000000
118.000000, 0.000000, 4234.358887, 4248.717773, 4230.769043, 4241.538574, 4249.743652, 4250.769043, 4257.948730, 4233.846191, 4229.743652, 4218.461426, 4183.076660, 4229.743652, 4282.051270, 4228.717773, 3538.000000, 8323.000000, 8133.000000, 0.000000, 0.000000, 0.000000, 1.000000, 107.179443, 1545658548.669179, 4.000000, 4.000000, 4.000000, 4.000000, 4.000000, 4.000000, 4.000000, 4.000000, 4.000000, 4.000000, 4.000000, 4.000000, 4.000000, 4.000000, 4.000000, 4.000000
119.000000, 0.000000, 4231.281738, 4254.358887, 4227.179199, 4244.102539, 4248.205078, 4245.641113, 4252.820313, 4236.922852, 4229.743652, 4215.897461, 4183.076660, 4225.127930, 4274.871582, 4224.102539, 3264.000000, 8338.000000, 8134.000000, 0.000000, 0.000000, 0.000000, 1.000000, 114.871765, 1545658548.676872, 4.000000, 4.000000, 4.000000, 4.000000, 4.000000, 4.000000, 4.000000, 4.000000, 4.000000, 4.000000, 4.000000, 4.000000, 4.000000, 4.000000, 4.000000, 4.000000
120.000000, 0.000000, 4209.230469, 4237.436035, 4206.153809, 4224.615234, 4229.743652, 4230.769043, 4226.153809, 4220.512695, 4214.358887, 4193.846191, 4161.025391, 4205.641113, 4249.230469, 4207.692383, 3514.000000, 8338.000000, 8134.000000, 0.000000, 0.000000, 0.000000, 1.000000, 122.564087, 1545658548.684564, 4.000000, 4.000000, 4.000000, 4.000000, 4.000000, 4.000000, 4.000000, 4.000000, 4.000000, 4.000000, 4.000000, 4.000000, 4.000000, 4.000000, 4.000000, 4.000000
121.000000, 0.000000, 4220.000000, 4251.281738, 4213.846191, 4227.692383, 4241.538574, 4245.127930, 4233.333008, 4209.230469, 4212.307617, 4205.127930, 4172.820313, 4216.410156, 4260.512695, 4220.000000, 3151.000000, 8378.000000, 8138.000000, 0.000000, 0.000000, 0.000000, 1.000000, 130.256409, 1545658548.692256, 4.000000, 4.000000, 4.000000, 4.000000, 4.000000, 4.000000, 4.000000, 4.000000, 4.000000, 4.000000, 4.000000, 4.000000, 4.000000, 4.000000, 4.000000, 4.000000
122.000000, 0.000000, 4239.487305, 4271.281738, 4227.179199, 4246.666504, 4258.461426, 4260.000000, 4253.333008, 4229.743652, 4229.230469, 4227.179199, 4189.743652, 4228.717773, 4271.281738, 4232.307617, 3538.000000, 8378.000000, 8138.000000, 0.000000, 0.000000, 0.000000, 1.000000, 137.948669, 1545658548.699949, 4.000000, 4.000000, 4.000000, 4.000000, 4.000000, 4.000000, 4.000000, 4.000000, 4.000000, 4.000000, 4.000000, 4.000000, 4.000000, 4.000000, 4.000000, 4.000000
123.000000, 0.000000, 4222.051270, 4248.205078, 4213.846191, 4238.974121, 4240.512695, 4241.025391, 4236.922852, 4243.589844, 4234.871582, 4214.871582, 4167.692383, 4213.333008, 4240.512695, 4215.384277, 3264.000000, 8397.000000, 8125.000000, 0.000000, 0.000000, 0.000000, 1.000000, 145.640991, 1545658548.707641, 4.000000, 4.000000, 4.000000, 4.000000, 4.000000, 4.000000, 4.000000, 4.000000, 4.000000, 4.000000, 4.000000, 4.000000, 4.000000, 4.000000, 4.000000, 4.000000
124.000000, 0.000000, 4194.358887, 4210.256348, 4194.871582, 4206.153809, 4210.769043, 4217.436035, 4206.666504, 4219.487305, 4210.769043, 4184.615234, 4141.538574, 4195.384277, 4214.871582, 4195.384277, 3514.000000, 8397.000000, 8125.000000, 0.000000, 0.000000, 0.000000, 1.000000, 153.846130, 1545658548.715846, 4.000000, 4.000000, 4.000000, 4.000000, 4.000000, 4.000000, 4.000000, 4.000000, 4.000000, 4.000000, 4.000000, 4.000000, 4.000000, 4.000000, 4.000000, 4.000000
125.000000, 0.000000, 4202.563965, 4213.846191, 4196.922852, 4201.538574, 4214.358887, 4220.000000, 4210.769043, 4204.102539, 4194.871582, 4178.461426, 4148.717773, 4196.922852, 4228.205078, 4202.563965, 3151.000000, 8410.000000, 8118.000000, 0.000000, 0.000000, 0.000000, 1.000000, 161.538452, 1545658548.723539, 4.000000, 4.000000, 4.000000, 4.000000, 4.000000, 4.000000, 4.000000, 4.000000, 4.000000, 4.000000, 4.000000, 4.000000, 4.000000, 4.000000, 4.000000, 4.000000
126.000000, 0.000000, 4233.846191, 4237.436035, 4221.025391, 4233.333008, 4233.846191, 4236.410156, 4238.974121, 4221.025391, 4211.794922, 4199.487305, 4180.000000, 4218.461426, 4260.000000, 4233.846191, 3538.000000, 8410.000000, 8118.000000, 0.000000, 0.000000, 0.000000, 1.000000, 169.230713, 1545658548.731231, 4.000000, 4.000000, 4.000000, 4.000000, 4.000000, 4.000000, 4.000000, 4.000000, 4.000000, 4.000000, 4.000000, 4.000000, 4.000000, 4.000000, 4.000000, 4.000000
127.000000, 0.000000, 4238.974121, 4225.127930, 4228.205078, 4233.846191, 4225.641113, 4234.871582, 4238.974121, 4237.948730, 4228.717773, 4208.717773, 4200.000000, 4232.307617, 4275.897461, 4248.717773, 56.000000, 8414.000000, 8117.000000, 0.000000, 0.000000, 0.000000, 1.000000, 176.923035, 1545658548.738923, 4.000000, 4.000000, 4.000000, 4.000000, 4.000000, 4.000000, 4.000000, 4.000000, 4.000000, 4.000000, 4.000000, 4.000000, 4.000000, 4.000000, 4.000000, 4.000000
0.000000, 0.000000, 4226.666504, 4200.512695, 4217.436035, 4210.256348, 4214.358887, 4225.641113, 4227.179199, 4240.000000, 4223.589844, 4203.589844, 4200.000000, 4230.256348, 4278.461426, 4245.127930, 3318.000000, 8414.000000, 8117.000000, 0.000000, 0.000000, 0.000000, 1.000000, 184.615356, 1545658548.746615, 4.000000, 4.000000, 4.000000, 4.000000, 4.000000, 4.000000, 4.000000, 4.000000, 4.000000, 4.000000, 4.000000, 4.000000, 4.000000, 4.000000, 4.000000, 4.000000
1.000000, 0.000000, 4231.794922, 4205.127930, 4224.102539, 4213.846191, 4228.205078, 4230.769043, 4239.487305, 4241.538574, 4226.666504, 4211.794922, 4202.563965, 4233.846191, 4283.076660, 4253.846191, 3497.000000, 8420.000000, 8112.000000, 0.000000, 0.000000, 0.000000, 1.000000, 192.820496, 1545658548.754821, 4.000000, 4.000000, 4.000000, 4.000000, 4.000000, 4.000000, 4.000000, 4.000000, 4.000000, 4.000000, 4.000000, 4.000000, 4.000000, 4.000000, 4.000000, 4.000000
2.000000, 0.000000, 4241.538574, 4211.794922, 4232.820313, 4226.666504, 4231.281738, 4234.871582, 4242.051270, 4233.846191, 4234.358887, 4216.410156, 4207.179199, 4234.358887, 4283.076660, 4263.076660, 3303.000000, 8420.000000, 8112.000000, 0.000000, 0.000000, 0.000000, 1.000000, 200.512817, 1545658548.762513, 4.000000, 4.000000, 4.000000, 4.000000, 4.000000, 4.000000, 4.000000, 4.000000, 4.000000, 4.000000, 4.000000, 4.000000, 4.000000, 4.000000, 4.000000, 4.000000
3.000000, 0.000000, 4237.436035, 4199.487305, 4225.641113, 4220.000000, 4218.974121, 4235.384277, 4222.051270, 4209.743652, 4223.589844, 4205.641113, 4202.563965, 4225.127930, 4270.769043, 4256.410156, 3558.000000, 8425.000000, 8130.000000, 0.000000, 0.000000, 0.000000, 1.000000, 208.205078, 1545658548.770205, 4.000000, 4.000000, 4.000000, 4.000000, 4.000000, 4.000000, 4.000000, 4.000000, 4.000000, 4.000000, 4.000000, 4.000000, 4.000000, 4.000000, 4.000000, 4.000000
4.000000, 0.000000, 4222.051270, 4178.974121, 4211.281738, 4199.487305, 4209.743652, 4228.717773, 4212.820313, 4198.461426, 4202.051270, 4196.410156, 4186.153809, 4213.333008, 4250.256348, 4241.538574, 3360.000000, 8425.000000, 8130.000000, 0.000000, 0.000000, 0.000000, 1.000000, 215.897431, 1545658548.777897, 4.000000, 4.000000, 4.000000, 4.000000, 4.000000, 4.000000, 4.000000, 4.000000, 4.000000, 4.000000, 4.000000, 4.000000, 4.000000, 4.000000, 4.000000, 4.000000
5.000000, 0.000000, 4212.820313, 4169.743652, 4207.692383, 4186.666504, 4203.589844, 4215.897461, 4220.512695, 4211.281738, 4202.563965, 4194.871582, 4177.948730, 4209.743652, 4242.563965, 4242.051270, 3457.000000, 8429.000000, 8183.000000, 0.000000, 0.000000, 0.000000, 1.000000, 224.102559, 1545658548.786103, 4.000000, 4.000000, 4.000000, 4.000000, 4.000000, 4.000000, 4.000000, 4.000000, 4.000000, 4.000000, 4.000000, 4.000000, 4.000000, 4.000000, 4.000000, 4.000000
6.000000, 0.000000, 4231.281738, 4191.794922, 4220.512695, 4199.487305, 4211.794922, 4219.487305, 4227.692383, 4218.974121, 4218.974121, 4203.076660, 4193.846191, 4219.487305, 4251.281738, 4261.538574, 3398.000000, 8429.000000, 8183.000000, 0.000000, 0.000000, 0.000000, 1.000000, 231.794867, 1545658548.793795, 4.000000, 4.000000, 4.000000, 4.000000, 4.000000, 4.000000, 4.000000, 4.000000, 4.000000, 4.000000, 4.000000, 4.000000, 4.000000, 4.000000, 4.000000, 4.000000
7.000000, 0.000000, 4240.000000, 4202.051270, 4220.000000, 4210.256348, 4222.051270, 4228.205078, 4224.102539, 4214.358887, 4216.922852, 4204.615234, 4194.871582, 4216.410156, 4244.615234, 4262.051270, 3217.000000, 8425.000000, 8202.000000, 0.000000, 0.000000, 0.000000, 1.000000, 239.487175, 1545658548.801487, 4.000000, 4.000000, 4.000000, 4.000000, 4.000000, 4.000000, 4.000000, 4.000000, 4.000000, 4.000000, 4.000000, 4.000000, 4.000000, 4.000000, 4.000000, 4.000000
8.000000, 0.000000, 4205.641113, 4165.641113, 4188.205078, 4187.179199, 4198.461426, 4206.666504, 4207.692383, 4216.410156, 4204.102539, 4186.153809, 4167.692383, 4187.179199, 4212.820313, 4230.256348, 3410.000000, 8425.000000, 8202.000000, 0.000000, 0.000000, 0.000000, 1.000000, 247.179482, 1545658548.809180, 4.000000, 4.000000, 4.000000, 4.000000, 4.000000, 4.000000, 4.000000, 4.000000, 4.000000, 4.000000, 4.000000, 4.000000, 4.000000, 4.000000, 4.000000, 4.000000
9.000000, 0.000000, 4193.333008, 4151.281738, 4174.358887, 4173.846191, 4184.615234, 4194.358887, 4204.615234, 4219.487305, 4205.127930, 4180.000000, 4166.153809, 4178.461426, 4202.051270, 4223.076660, 3222.000000, 8437.000000, 8221.000000, 0.000000, 0.000000, 0.000000, 1.000000, 254.871788, 1545658548.816872, 4.000000, 4.000000, 4.000000, 4.000000, 4.000000, 4.000000, 4.000000, 4.000000, 4.000000, 4.000000, 4.000000, 4.000000, 4.000000, 4.000000, 4.000000, 4.000000
10.000000, 0.000000, 4236.922852, 4195.897461, 4212.307617, 4208.205078, 4223.589844, 4232.307617, 4240.000000, 4254.358887, 4235.897461, 4211.281738, 4206.153809, 4215.384277, 4233.333008, 4264.102539, 3527.000000, 8437.000000, 8221.000000, 0.000000, 0.000000, 0.000000, 1.000000, 262.564098, 1545658548.824564, 4.000000, 4.000000, 4.000000, 4.000000, 4.000000, 4.000000, 4.000000, 4.000000, 4.000000, 4.000000, 4.000000, 4.000000, 4.000000, 4.000000, 4.000000, 4.000000
11.000000, 0.000000, 4264.615234, 4227.179199, 4240.512695, 4239.487305, 4251.794922, 4264.615234, 4265.641113, 4285.127930, 4262.051270, 4237.948730, 4227.692383, 4239.487305, 4255.384277, 4290.256348, 3247.000000, 8448.000000, 8228.000000, 0.000000, 0.000000, 0.000000, 1.000000, 270.769226, 1545658548.832769, 4.000000, 4.000000, 4.000000, 4.000000, 4.000000, 4.000000, 4.000000, 4.000000, 4.000000, 4.000000, 4.000000, 4.000000, 4.000000, 4.000000, 4.000000, 4.000000
12.000000, 0.000000, 4252.820313, 4218.461426, 4228.205078, 4236.410156, 4237.436035, 4259.487305, 4256.922852, 4252.307617, 4249.230469, 4232.820313, 4217.436035, 4223.076660, 4249.230469, 4277.436035, 3501.000000, 8448.000000, 8228.000000, 0.000000, 0.000000, 0.000000, 1.000000, 278.461533, 1545658548.840461, 4.000000, 4.000000, 4.000000, 4.000000, 4.000000, 4.000000, 4.000000, 4.000000, 4.000000, 4.000000, 4.000000, 4.000000, 4.000000, 4.000000, 4.000000, 4.000000
13.000000, 0.000000, 4252.820313, 4218.461426, 4225.127930, 4233.846191, 4235.384277, 4257.948730, 4260.000000, 4241.025391, 4249.230469, 4234.358887, 4217.436035, 4218.461426, 4254.871582, 4274.871582, 3146.000000, 8474.000000, 8266.000000, 0.000000, 0.000000, 0.000000, 1.000000, 286.153839, 1545658548.848154, 4.000000, 4.000000, 4.000000, 4.000000, 4.000000, 4.000000, 4.000000, 4.000000, 4.000000, 4.000000, 4.000000, 4.000000, 4.000000, 4.000000, 4.000000, 4.000000
14.000000, 0.000000, 4280.512695, 4246.666504, 4251.281738, 4256.410156, 4266.153809, 4278.974121, 4291.281738, 4282.563965, 4280.000000, 4256.922852, 4240.512695, 4246.666504, 4285.127930, 4302.563965, 3527.000000, 8474.000000, 8266.000000, 0.000000, 0.000000, 0.000000, 1.000000, 294.358971, 1545658548.856359, 4.000000, 4.000000, 4.000000, 4.000000, 4.000000, 4.000000, 4.000000, 4.000000, 4.000000, 4.000000, 4.000000, 4.000000, 4.000000, 4.000000, 4.000000, 4.000000
15.000000, 0.000000, 4288.717773, 4254.358887, 4257.436035, 4262.563965, 4275.384277, 4282.563965, 4288.205078, 4268.717773, 4269.743652, 4253.846191, 4242.563965, 4251.794922, 4288.205078, 4309.743652, 3247.000000, 8490.000000, 8289.000000, 0.000000, 0.000000, 0.000000, 1.000000, 302.051277, 1545658548.864051, 4.000000, 4.000000, 4.000000, 4.000000, 4.000000, 4.000000, 4.000000, 4.000000, 4.000000, 4.000000, 4.000000, 4.000000, 4.000000, 4.000000, 4.000000, 4.000000
16.000000, 0.000000, 4263.589844, 4222.563965, 4229.743652, 4234.358887, 4247.179199, 4256.410156, 4246.153809, 4217.436035, 4228.205078, 4224.102539, 4212.307617, 4222.563965, 4256.922852, 4283.076660, 0.000000, 8490.000000, 8289.000000, 0.000000, 0.000000, 0.000000, 1.000000, 309.743584, 1545658548.871744, 4.000000, 4.000000, 4.000000, 4.000000, 4.000000, 4.000000, 4.000000, 4.000000, 4.000000, 4.000000, 4.000000, 4.000000, 4.000000, 4.000000, 4.000000, 4.000000
17.000000, 0.000000, 4249.230469, 4206.153809, 4217.948730, 4217.948730, 4225.127930, 4236.922852, 4232.820313, 4222.563965, 4225.127930, 4217.436035, 4196.922852, 4212.820313, 4244.615234, 4273.846191, 0.000000, 8509.000000, 8306.000000, 0.000000, 0.000000, 0.000000, 1.000000, 317.948708, 1545658548.879949, 4.000000, 4.000000, 4.000000, 4.000000, 4.000000, 4.000000, 4.000000, 4.000000, 4.000000, 4.000000, 4.000000, 4.000000, 4.000000, 4.000000, 4.000000, 4.000000
18.000000, 0.000000, 4243.076660, 4200.512695, 4214.358887, 4209.230469, 4207.692383, 4214.871582, 4227.179199, 4224.615234, 4218.974121, 4210.256348, 4189.230469, 4209.230469, 4237.436035, 4271.794922, 0.000000, 8509.000000, 8306.000000, 0.000000, 0.000000, 0.000000, 1.000000, 325.641022, 1545658548.887641, 4.000000, 4.000000, 4.000000, 4.000000, 4.000000, 4.000000, 4.000000, 4.000000, 4.000000, 4.000000, 4.000000, 4.000000, 4.000000, 4.000000, 4.000000, 4.000000
19.000000, 0.000000, 4219.487305, 4168.717773, 4189.230469, 4177.436035, 4175.384277, 4179.487305, 4192.820313, 4188.717773, 4176.410156, 4174.871582, 4161.025391, 4181.025391, 4205.127930, 4245.641113, 0.000000, 8518.000000, 8311.000000, 0.000000, 0.000000, 0.000000, 1.000000, 333.333328, 1545658548.895333, 4.000000, 4.000000, 4.000000, 4.000000, 4.000000, 4.000000, 4.000000, 4.000000, 4.000000, 4.000000, 4.000000, 4.000000, 4.000000, 4.000000, 4.000000, 4.000000
20.000000, 0.000000, 4207.692383, 4147.692383, 4177.948730, 4156.922852, 4158.974121, 4166.153809, 4173.846191, 4179.487305, 4159.487305, 4158.461426, 4147.692383, 4168.717773, 4187.692383, 4235.384277, 0.000000, 8518.000000, 8311.000000, 0.000000, 0.000000, 0.000000, 1.000000, 341.025635, 1545658548.903026, 4.000000, 4.000000, 4.000000, 4.000000, 4.000000, 4.000000, 4.000000, 4.000000, 4.000000, 4.000000, 4.000000, 4.000000, 4.000000, 4.000000, 4.000000, 4.000000
21.000000, 0.000000, 4229.230469, 4168.717773, 4196.922852, 4176.922852, 4178.461426, 4184.102539, 4186.666504, 4185.641113, 4177.436035, 4174.871582, 4166.666504, 4185.641113, 4206.153809, 4257.436035, 0.000000, 8528.000000, 8373.000000, 0.000000, 0.000000, 0.000000, 1.000000, 349.230759, 1545658548.911231, 4.000000, 4.000000, 4.000000, 4.000000, 4.000000, 4.000000, 4.000000, 4.000000, 4.000000, 4.000000, 4.000000, 4.000000, 4.000000, 4.000000, 4.000000, 4.000000
22.000000, 0.000000, 4236.410156, 4178.461426, 4202.563965, 4189.230469, 4188.717773, 4187.692383, 4188.717773, 4180.512695, 4180.512695, 4182.051270, 4171.281738, 4187.692383, 4213.333008, 4262.563965, 0.000000, 8528.000000, 8373.000000, 0.000000, 0.000000, 0.000000, 1.000000, 356.923065, 1545658548.918923, 4.000000, 4.000000, 4.000000, 4.000000, 4.000000, 4.000000, 4.000000, 4.000000, 4.000000, 4.000000, 4.000000, 4.000000, 4.000000, 4.000000, 4.000000, 4.000000
23.000000, 0.000000, 4227.179199, 4165.641113, 4198.461426, 4185.127930, 4182.563965, 4182.563965, 4191.794922, 4197.436035, 4181.538574, 4182.563965, 4162.051270, 4182.563965, 4207.692383, 4261.025391, 0.000000, 8523.000000, 8410.000000, 0.000000, 0.000000, 0.000000, 1.000000, 364.615372, 1545658548.926615, 4.000000, 4.000000, 4.000000, 4.000000, 4.000000, 4.000000, 4.000000, 4.000000, 4.000000, 4.000000, 4.000000, 4.000000, 4.000000, 4.000000, 4.000000, 4.000000
24.000000, 0.000000, 4241.025391, 4176.922852, 4214.358887, 4198.974121, 4195.384277, 4201.538574, 4220.512695, 4217.948730, 4204.615234, 4201.025391, 4173.846191, 4196.410156, 4215.897461, 4282.051270, 0.000000, 8523.000000, 8410.000000, 0.000000, 0.000000, 0.000000, 1.000000, 372.307678, 1545658548.934308, 4.000000, 4.000000, 4.000000, 4.000000, 4.000000, 4.000000, 4.000000, 4.000000, 4.000000, 4.000000, 4.000000, 4.000000, 4.000000, 4.000000, 4.000000, 4.000000
25.000000, 0.000000, 4255.384277, 4192.307617, 4227.179199, 4208.717773, 4208.205078, 4216.922852, 4235.897461, 4206.666504, 4215.897461, 4213.846191, 4189.230469, 4207.179199, 4228.205078, 4296.922852, 0.000000, 8520.000000, 8457.000000, 0.000000, 0.000000, 0.000000, 1.000000, 380.512817, 1545658548.942513, 4.000000, 4.000000, 4.000000, 4.000000, 4.000000, 4.000000, 4.000000, 4.000000, 4.000000, 4.000000, 4.000000, 4.000000, 4.000000, 4.000000, 4.000000, 4.000000
26.000000, 0.000000, 4244.615234, 4187.692383, 4217.948730, 4196.410156, 4202.051270, 4204.102539, 4225.641113, 4195.897461, 4201.538574, 4208.717773, 4189.743652, 4204.615234, 4234.871582, 4292.820313, 0.000000, 8520.000000, 8457.000000, 0.000000, 0.000000, 0.000000, 1.000000, 388.205124, 1545658548.950205, 4.000000, 4.000000, 4.000000, 4.000000, 4.000000, 4.000000, 4.000000, 4.000000, 4.000000, 4.000000, 4.000000, 4.000000, 4.000000, 4.000000, 4.000000, 4.000000
27.000000, 0.000000, 4224.615234, 4164.102539, 4197.436035, 4174.358887, 4184.102539, 4183.589844, 4195.897461, 4194.358887, 4181.538574, 4191.794922, 4177.948730, 4191.794922, 4229.230469, 4282.051270, 0.000000, 8511.000000, 8473.000000, 0.000000, 0.000000, 0.000000, 1.000000, 395.897430, 1545658548.957897, 4.000000, 4.000000, 4.000000, 4.000000, 4.000000, 4.000000, 4.000000, 4.000000, 4.000000, 4.000000, 4.000000, 4.000000, 4.000000, 4.000000, 4.000000, 4.000000
28.000000, 0.000000, 4233.846191, 4155.897461, 4204.102539, 4177.948730, 4187.179199, 4192.820313, 4187.179199, 4202.051270, 4191.281738, 4200.512695, 4190.769043, 4194.871582, 4239.487305, 4290.769043, 0.000000, 8511.000000, 8473.000000, 0.000000, 0.000000, 0.000000, 1.000000, 404.102554, 1545658548.966103, 4.000000, 4.000000, 4.000000, 4.000000, 4.000000, 4.000000, 4.000000, 4.000000, 4.000000, 4.000000, 4.000000, 4.000000, 4.000000, 4.000000, 4.000000, 4.000000
29.000000, 0.000000, 4267.692383, 4181.025391, 4235.897461, 4208.205078, 4216.922852, 4232.307617, 4232.307617, 4243.076660, 4243.076660, 4244.615234, 4239.487305, 4226.153809, 4286.666504, 4321.538574, 0.000000, 8499.000000, 8522.000000, 0.000000, 0.000000, 0.000000, 1.000000, 411.794861, 1545658548.973795, 4.000000, 4.000000, 4.000000, 4.000000, 4.000000, 4.000000, 4.000000, 4.000000, 4.000000, 4.000000, 4.000000, 4.000000, 4.000000, 4.000000, 4.000000, 4.000000
30.000000, 0.000000, 4276.922852, 4186.666504, 4243.076660, 4215.897461, 4224.102539, 4241.025391, 4258.974121, 4267.179199, 4265.127930, 4262.051270, 4264.615234, 4240.000000, 4316.922852, 4337.436035, 0.000000, 8499.000000, 8522.000000, 0.000000, 0.000000, 0.000000, 1.000000, 419.487167, 1545658548.981487, 4.000000, 4.000000, 4.000000, 4.000000, 4.000000, 4.000000, 4.000000, 4.000000, 4.000000, 4.000000, 4.000000, 4.000000, 4.000000, 4.000000, 4.000000, 4.000000
31.000000, 0.000000, 4254.358887, 4153.333008, 4216.922852, 4188.205078, 4195.897461, 4208.205078, 4211.794922, 4223.076660, 4224.615234, 4237.436035, 4242.563965, 4218.461426, 4297.436035, 4319.487305, 0.000000, 8489.000000, 8538.000000, 0.000000, 0.000000, 0.000000, 1.000000, 427.692291, 1545658548.989692, 4.000000, 4.000000, 4.000000, 4.000000, 4.000000, 4.000000, 4.000000, 4.000000, 4.000000, 4.000000, 4.000000, 4.000000, 4.000000, 4.000000, 4.000000, 4.000000
32.000000, 0.000000, 4234.871582, 4131.794922, 4200.000000, 4166.666504, 4180.000000, 4190.256348, 4174.358887, 4190.769043, 4202.051270, 4223.076660, 4221.538574, 4200.512695, 4269.743652, 4302.563965, 0.000000, 8489.000000, 8538.000000, 0.000000, 0.000000, 0.000000, 1.000000, 435.384598, 1545658548.997385, 4.000000, 4.000000, 4.000000, 4.000000, 4.000000, 4.000000, 4.000000, 4.000000, 4.000000, 4.000000, 4.000000, 4.000000, 4.000000, 4.000000, 4.000000, 4.000000
33.000000, 0.000000, 4233.846191, 4141.025391, 4208.717773, 4168.205078, 4186.153809, 4202.051270, 4193.846191, 4206.153809, 4221.025391, 4231.794922, 4228.717773, 4203.589844, 4265.641113, 4305.641113, 0.000000, 8462.000000, 8566.000000, 0.000000, 0.000000, 0.000000, 1.000000, 443.076920, 1545658549.005077, 4.000000, 4.000000, 4.000000, 4.000000, 4.000000, 4.000000, 4.000000, 4.000000, 4.000000, 4.000000, 4.000000, 4.000000, 4.000000, 4.000000, 4.000000, 4.000000
34.000000, 0.000000, 4235.384277, 4140.512695, 4209.743652, 4170.256348, 4186.153809, 4203.076660, 4202.051270, 4208.205078, 4218.461426, 4232.307617, 4230.769043, 4203.589844, 4263.076660, 4304.615234, 0.000000, 8462.000000, 8566.000000, 0.000000, 0.000000, 0.000000, 1.000000, 450.769226, 1545658549.012769, 4.000000, 4.000000, 4.000000, 4.000000, 4.000000, 4.000000, 4.000000, 4.000000, 4.000000, 4.000000, 4.000000, 4.000000, 4.000000, 4.000000, 4.000000, 4.000000
35.000000, 0.000000, 4232.307617, 4139.487305, 4203.076660, 4169.230469, 4182.563965, 4189.230469, 4192.307617, 4199.487305, 4200.000000, 4221.538574, 4224.615234, 4198.974121, 4254.358887, 4296.922852, 0.000000, 8455.000000, 8581.000000, 0.000000, 0.000000, 0.000000, 1.000000, 458.974350, 1545658549.020974, 4.000000, 4.000000, 4.000000, 4.000000, 4.000000, 4.000000, 4.000000, 4.000000, 4.000000, 4.000000, 4.000000, 4.000000, 4.000000, 4.000000, 4.000000, 4.000000
36.000000, 0.000000, 4230.769043, 4148.717773, 4203.589844, 4168.205078, 4180.512695, 4182.563965, 4197.436035, 4214.358887, 4202.051270, 4214.871582, 4225.127930, 4197.948730, 4249.230469, 4293.846191, 0.000000, 8455.000000, 8581.000000, 0.000000, 0.000000, 0.000000, 1.000000, 466.666656, 1545658549.028667, 4.000000, 4.000000, 4.000000, 4.000000, 4.000000, 4.000000, 4.000000, 4.000000, 4.000000, 4.000000, 4.000000, 4.000000, 4.000000, 4.000000, 4.000000, 4.000000
37.000000, 0.000000, 4237.436035, 4151.281738, 4213.846191, 4176.410156, 4185.641113, 4188.717773, 4200.512695, 4234.358887, 4215.897461, 4220.512695, 4230.256348, 4203.076660, 4253.846191, 4300.512695, 0.000000, 8427.000000, 8565.000000, 0.000000, 0.000000, 0.000000, 1.000000, 474.358978, 1545658549.036359, 4.000000, 4.000000, 4.000000, 4.000000, 4.000000, 4.000000, 4.000000, 4.000000, 4.000000, 4.000000, 4.000000, 4.000000, 4.000000, 4.000000, 4.000000, 4.000000
38.000000, 0.000000, 4249.230469, 4162.051270, 4227.179199, 4194.871582, 4199.487305, 4206.666504, 4208.717773, 4235.384277, 4229.230469, 4234.358887, 4238.461426, 4217.436035, 4266.153809, 4314.871582, 0.000000, 8427.000000, 8565.000000, 0.000000, 0.000000, 0.000000, 1.000000, 482.051270, 1545658549.044051, 4.000000, 4.000000, 4.000000, 4.000000, 4.000000, 4.000000, 4.000000, 4.000000, 4.000000, 4.000000, 4.000000, 4.000000, 4.000000, 4.000000, 4.000000, 4.000000
39.000000, 0.000000, 4252.307617, 4178.974121, 4231.794922, 4199.487305, 4206.153809, 4214.871582, 4224.102539, 4221.538574, 4230.256348, 4235.897461, 4247.179199, 4222.563965, 4270.769043, 4326.666504, 0.000000, 8403.000000, 8542.000000, 0.000000, 0.000000, 0.000000, 1.000000, 490.256409, 1545658549.052256, 4.000000, 4.000000, 4.000000, 4.000000, 4.000000, 4.000000, 4.000000, 4.000000, 4.000000, 4.000000, 4.000000, 4.000000, 4.000000, 4.000000, 4.000000, 4.000000
40.000000, 0.000000, 4249.743652, 4178.461426, 4229.230469, 4195.897461, 4206.666504, 4209.230469, 4210.256348, 4206.153809, 4218.974121, 4232.307617, 4254.871582, 4216.922852, 4269.230469, 4327.179199, 0.000000, 8403.000000, 8542.000000, 0.000000, 0.000000, 0.000000, 1.000000, 497.948700, 1545658549.059949, 4.000000, 4.000000, 4.000000, 4.000000, 4.000000, 4.000000, 4.000000, 4.000000, 4.000000, 4.000000, 4.000000, 4.000000, 4.000000, 4.000000, 4.000000, 4.000000
41.000000, 0.000000, 4248.717773, 4167.179199, 4227.692383, 4196.922852, 4208.205078, 4208.205078, 4195.897461, 4198.974121, 4213.846191, 4238.974121, 4258.974121, 4218.974121, 4268.205078, 4324.615234, 0.000000, 8343.000000, 8537.000000, 0.000000, 0.000000, 0.000000, 1.000000, 505.641022, 1545658549.067641, 4.000000, 4.000000, 4.000000, 4.000000, 4.000000, 4.000000, 4.000000, 4.000000, 4.000000, 4.000000, 4.000000, 4.000000, 4.000000, 4.000000, 4.000000, 4.000000
42.000000, 0.000000, 4259.487305, 4173.846191, 4235.384277, 4201.025391, 4214.358887, 4221.538574, 4231.794922, 4215.384277, 4224.615234, 4252.820313, 4268.717773, 4233.846191, 4273.846191, 4336.410156, 0.000000, 8343.000000, 8537.000000, 0.000000, 0.000000, 0.000000, 1.000000, 513.846130, 1545658549.075846, 4.000000, 4.000000, 4.000000, 4.000000, 4.000000, 4.000000, 4.000000, 4.000000, 4.000000, 4.000000, 4.000000, 4.000000, 4.000000, 4.000000, 4.000000, 4.000000
43.000000, 0.000000, 4264.102539, 4179.487305, 4236.922852, 4197.948730, 4215.384277, 4226.666504, 4241.538574, 4231.281738, 4230.256348, 4251.794922, 4271.794922, 4234.871582, 4268.205078, 4341.025391, 0.000000, 8317.000000, 8528.000000, 0.000000, 0.000000, 0.000000, 1.000000, 521.538452, 1545658549.083538, 4.000000, 4.000000, 4.000000, 4.000000, 4.000000, 4.000000, 4.000000, 4.000000, 4.000000, 4.000000, 4.000000, 4.000000, 4.000000, 4.000000, 4.000000, 4.000000
44.000000, 0.000000, 4248.717773, 4163.076660, 4226.666504, 4183.589844, 4202.051270, 4212.307617, 4224.615234, 4220.512695, 4215.897461, 4228.717773, 4257.436035, 4214.871582, 4243.589844, 4322.563965, 0.000000, 8317.000000, 8528.000000, 0.000000, 0.000000, 0.000000, 1.000000, 529.230743, 1545658549.091231, 4.000000, 4.000000, 4.000000, 4.000000, 4.000000, 4.000000, 4.000000, 4.000000, 4.000000, 4.000000, 4.000000, 4.000000, 4.000000, 4.000000, 4.000000, 4.000000
45.000000, 0.000000, 4257.948730, 4168.205078, 4240.000000, 4192.307617, 4203.076660, 4220.512695, 4300.000000, 4226.153809, 4223.076660, 4233.846191, 4267.179199, 4226.666504, 4250.769043, 4332.307617, 0.000000, 8283.000000, 8521.000000, 0.000000, 0.000000, 0.000000, 1.000000, 537.435883, 1545658549.099436, 4.000000, 4.000000, 4.000000, 4.000000, 4.000000, 4.000000, 4.000000, 4.000000, 4.000000, 4.000000, 4.000000, 4.000000, 4.000000, 4.000000, 4.000000, 4.000000
46.000000, 0.000000, 4285.127930, 4191.794922, 4264.102539, 4217.436035, 4216.410156, 4237.948730, 4396.410156, 4244.615234, 4246.666504, 4260.512695, 4293.333008, 4256.922852, 4279.487305, 4363.076660, 0.000000, 8283.000000, 8521.000000, 0.000000, 0.000000, 0.000000, 1.000000, 545.128204, 1545658549.107128, 4.000000, 4.000000, 4.000000, 4.000000, 4.000000, 4.000000, 4.000000, 4.000000, 4.000000, 4.000000, 4.000000, 4.000000, 4.000000, 4.000000, 4.000000, 4.000000
47.000000, 0.000000, 4273.846191, 4180.000000, 4253.846191, 4201.538574, 4201.025391, 4211.794922, 4386.666504, 4256.922852, 4244.615234, 4252.307617, 4280.512695, 4243.076660, 4265.127930, 4349.743652, 0.000000, 8276.000000, 8555.000000, 0.000000, 0.000000, 0.000000, 1.000000, 552.820496, 1545658549.114820, 4.000000, 4.000000, 4.000000, 4.000000, 4.000000, 4.000000, 4.000000, 4.000000, 4.000000, 4.000000, 4.000000, 4.000000, 4.000000, 4.000000, 4.000000, 4.000000
48.000000, 0.000000, 4243.076660, 4148.205078, 4226.153809, 4167.692383, 4175.897461, 4175.384277, 4349.743652, 4243.076660, 4220.512695, 4221.538574, 4247.179199, 4213.846191, 4230.769043, 4317.436035, 0.000000, 8276.000000, 8555.000000, 0.000000, 0.000000, 0.000000, 1.000000, 560.512817, 1545658549.122513, 4.000000, 4.000000, 4.000000, 4.000000, 4.000000, 4.000000, 4.000000, 4.000000, 4.000000, 4.000000, 4.000000, 4.000000, 4.000000, 4.000000, 4.000000, 4.000000
49.000000, 0.000000, 4238.461426, 4147.179199, 4219.487305, 4172.307617, 4181.025391, 4182.051270, 4363.589844, 4190.769043, 4202.051270, 4212.307617, 4239.487305, 4211.794922, 4224.615234, 4314.871582, 0.000000, 8263.000000, 8628.000000, 0.000000, 0.000000, 0.000000, 1.000000, 568.717926, 1545658549.130718, 4.000000, 4.000000, 4.000000, 4.000000, 4.000000, 4.000000, 4.000000, 4.000000, 4.000000, 4.000000, 4.000000, 4.000000, 4.000000, 4.000000, 4.000000, 4.000000
50.000000, 0.000000, 4243.589844, 4164.102539, 4221.538574, 4188.717773, 4191.281738, 4192.307617, 4365.127930, 4165.127930, 4189.230469, 4213.846191, 4237.436035, 4211.794922, 4229.743652, 4317.436035, 0.000000, 8263.000000, 8628.000000, 0.000000, 0.000000, 0.000000, 1.000000, 576.410248, 1545658549.138410, 4.000000, 4.000000, 4.000000, 4.000000, 4.000000, 4.000000, 4.000000, 4.000000, 4.000000, 4.000000, 4.000000, 4.000000, 4.000000, 4.000000, 4.000000, 4.000000
51.000000, 0.000000, 4236.922852, 4165.641113, 4216.410156, 4182.563965, 4185.641113, 4181.025391, 4340.000000, 4188.717773, 4182.563965, 4211.281738, 4227.179199, 4200.512695, 4223.589844, 4308.717773, 0.000000, 8264.000000, 8638.000000, 0.000000, 0.000000, 0.000000, 1.000000, 584.102539, 1545658549.146102, 4.000000, 4.000000, 4.000000, 4.000000, 4.000000, 4.000000, 4.000000, 4.000000, 4.000000, 4.000000, 4.000000, 4.000000, 4.000000, 4.000000, 4.000000, 4.000000
52.000000, 0.000000, 4232.307617, 4165.127930, 4213.846191, 4176.410156, 4182.563965, 4184.102539, 4337.436035, 4207.179199, 4193.846191, 4215.384277, 4226.153809, 4199.487305, 4219.487305, 4303.589844, 0.000000, 8264.000000, 8638.000000, 0.000000, 0.000000, 0.000000, 1.000000, 591.794861, 1545658549.153795, 4.000000, 4.000000, 4.000000, 4.000000, 4.000000, 4.000000, 4.000000, 4.000000, 4.000000, 4.000000, 4.000000, 4.000000, 4.000000, 4.000000, 4.000000, 4.000000
53.000000, 0.000000, 4227.692383, 4159.487305, 4208.717773, 4172.820313, 4185.127930, 4195.384277, 4349.230469, 4201.025391, 4202.563965, 4217.436035, 4230.256348, 4200.512695, 4215.384277, 4300.512695, 0.000000, 8289.000000, 8590.000000, 0.000000, 0.000000, 0.000000, 1.000000, 600.000000, 1545658549.162000, 4.000000, 4.000000, 4.000000, 4.000000, 4.000000, 4.000000, 4.000000, 4.000000, 4.000000, 4.000000, 4.000000, 4.000000, 4.000000, 4.000000, 4.000000, 4.000000
54.000000, 0.000000, 4220.000000, 4135.384277, 4203.076660, 4161.538574, 4181.538574, 4189.230469, 4348.205078, 4203.589844, 4200.000000, 4213.846191, 4236.922852, 4204.102539, 4211.281738, 4300.000000, 0.000000, 8289.000000, 8590.000000, 0.000000, 0.000000, 0.000000, 1.000000, 607.692291, 1545658549.169692, 4.000000, 4.000000, 4.000000, 4.000000, 4.000000, 4.000000, 4.000000, 4.000000, 4.000000, 4.000000, 4.000000, 4.000000, 4.000000, 4.000000, 4.000000, 4.000000
55.000000, 0.000000, 4230.256348, 4138.974121, 4215.897461, 4168.717773, 4183.076660, 4189.230469, 4349.743652, 4211.794922, 4206.153809, 4223.076660, 4253.333008, 4217.436035, 4218.974121, 4309.743652, 0.000000, 8295.000000, 8548.000000, 0.000000, 0.000000, 0.000000, 1.000000, 615.897430, 1545658549.177897, 4.000000, 4.000000, 4.000000, 4.000000, 4.000000, 4.000000, 4.000000, 4.000000, 4.000000, 4.000000, 4.000000, 4.000000, 4.000000, 4.000000, 4.000000, 4.000000
56.000000, 0.000000, 4256.922852, 4182.051270, 4238.974121, 4191.794922, 4197.436035, 4202.051270, 4364.102539, 4221.025391, 4220.512695, 4236.410156, 4267.179199, 4234.358887, 4231.281738, 4324.102539, 0.000000, 8295.000000, 8548.000000, 0.000000, 0.000000, 0.000000, 1.000000, 623.589722, 1545658549.185590, 4.000000, 4.000000, 4.000000, 4.000000, 4.000000, 4.000000, 4.000000, 4.000000, 4.000000, 4.000000, 4.000000, 4.000000, 4.000000, 4.000000, 4.000000, 4.000000
57.000000, 0.000000, 4269.230469, 4207.179199, 4250.769043, 4206.666504, 4201.538574, 4204.102539, 4364.102539, 4221.025391, 4216.922852, 4231.794922, 4268.717773, 4244.102539, 4230.256348, 4331.794922, 0.000000, 8289.000000, 8520.000000, 0.000000, 0.000000, 0.000000, 1.000000, 631.282043, 1545658549.193282, 4.000000, 4.000000, 4.000000, 4.000000, 4.000000, 4.000000, 4.000000, 4.000000, 4.000000, 4.000000, 4.000000, 4.000000, 4.000000, 4.000000, 4.000000, 4.000000
58.000000, 0.000000, 4265.641113, 4203.589844, 4247.179199, 4212.820313, 4195.384277, 4201.538574, 4348.205078, 4216.410156, 4207.179199, 4216.922852, 4256.410156, 4244.102539, 4212.820313, 4327.692383, 0.000000, 8289.000000, 8520.000000, 0.000000, 0.000000, 0.000000, 1.000000, 639.487152, 1545658549.201487, 4.000000, 4.000000, 4.000000, 4.000000, 4.000000, 4.000000, 4.000000, 4.000000, 4.000000, 4.000000, 4.000000, 4.000000, 4.000000, 4.000000, 4.000000, 4.000000
59.000000, 0.000000, 4269.743652, 4213.846191, 4246.153809, 4217.436035, 4198.461426, 4207.179199, 4340.512695, 4225.641113, 4212.307617, 4213.846191, 4247.179199, 4241.538574, 4205.127930, 4324.615234, 0.000000, 8287.000000, 8512.000000, 0.000000, 0.000000, 0.000000, 1.000000, 647.179474, 1545658549.209179, 4.000000, 4.000000, 4.000000, 4.000000, 4.000000, 4.000000, 4.000000, 4.000000, 4.000000, 4.000000, 4.000000, 4.000000, 4.000000, 4.000000, 4.000000, 4.000000
60.000000, 0.000000, 4270.769043, 4226.666504, 4248.717773, 4212.307617, 4194.871582, 4194.358887, 4325.127930, 4213.333008, 4206.153809, 4214.871582, 4250.256348, 4239.487305, 4215.897461, 4324.615234, 0.000000, 8287.000000, 8512.000000, 0.000000, 0.000000, 0.000000, 1.000000, 654.871765, 1545658549.216872, 4.000000, 4.000000, 4.000000, 4.000000, 4.000000, 4.000000, 4.000000, 4.000000, 4.000000, 4.000000, 4.000000, 4.000000, 4.000000, 4.000000, 4.000000, 4.000000
61.000000, 0.000000, 4263.076660, 4217.436035, 4246.666504, 4201.025391, 4186.153809, 4178.461426, 4316.922852, 4193.333008, 4196.410156, 4213.333008, 4250.769043, 4235.384277, 4226.666504, 4316.410156, 0.000000, 8285.000000, 8540.000000, 0.000000, 0.000000, 0.000000, 1.000000, 663.076904, 1545658549.225077, 4.000000, 4.000000, 4.000000, 4.000000, 4.000000, 4.000000, 4.000000, 4.000000, 4.000000, 4.000000, 4.000000, 4.000000, 4.000000, 4.000000, 4.000000, 4.000000
62.000000, 0.000000, 4260.512695, 4215.897461, 4247.179199, 4209.743652, 4196.410156, 4193.846191, 4328.717773, 4201.025391, 4200.512695, 4217.948730, 4248.205078, 4237.948730, 4241.538574, 4310.256348, 0.000000, 8285.000000, 8540.000000, 0.000000, 0.000000, 0.000000, 1.000000, 670.769226, 1545658549.232769, 4.000000, 4.000000, 4.000000, 4.000000, 4.000000, 4.000000, 4.000000, 4.000000, 4.000000, 4.000000, 4.000000, 4.000000, 4.000000, 4.000000, 4.000000, 4.000000
63.000000, 0.000000, 4263.076660, 4225.641113, 4255.897461, 4227.179199, 4207.179199, 4200.000000, 4318.461426, 4201.538574, 4204.102539, 4218.974121, 4255.384277, 4245.641113, 4266.153809, 4312.307617, 0.000000, 8279.000000, 8550.000000, 0.000000, 0.000000, 0.000000, 1.000000, 678.461517, 1545658549.240461, 4.000000, 4.000000, 4.000000, 4.000000, 4.000000, 4.000000, 4.000000, 4.000000, 4.000000, 4.000000, 4.000000, 4.000000, 4.000000, 4.000000, 4.000000, 4.000000
64.000000, 0.000000, 4267.692383, 4233.846191, 4264.615234, 4232.820313, 4204.615234, 4185.641113, 4297.948730, 4195.384277, 4205.641113, 4216.922852, 4261.025391, 4249.743652, 4289.743652, 4310.256348, 3327.000000, 8279.000000, 8550.000000, 0.000000, 0.000000, 0.000000, 1.000000, 686.153839, 1545658549.248154, 4.000000, 4.000000, 4.000000, 4.000000, 4.000000, 4.000000, 4.000000, 4.000000, 4.000000, 4.000000, 4.000000, 4.000000, 4.000000, 4.000000, 4.000000, 4.000000
65.000000, 0.000000, 4265.641113, 4237.948730, 4263.076660, 4233.333008, 4205.641113, 4194.871582, 4308.717773, 4206.666504, 4212.307617, 4221.538574, 4257.948730, 4252.307617, 4297.948730, 4302.051270, 3504.000000, 8245.000000, 8519.000000, 0.000000, 0.000000, 0.000000, 1.000000, 694.358948, 1545658549.256359, 4.000000, 4.000000, 4.000000, 4.000000, 4.000000, 4.000000, 4.000000, 4.000000, 4.000000, 4.000000, 4.000000, 4.000000, 4.000000, 4.000000, 4.000000, 4.000000
66.000000, 0.000000, 4251.794922, 4229.230469, 4251.794922, 4227.692383, 4206.153809, 4209.743652, 4318.461426, 4211.281738, 4205.641113, 4218.461426, 4251.281738, 4251.794922, 4294.358887, 4290.769043, 3308.000000, 8245.000000, 8519.000000, 0.000000, 0.000000, 0.000000, 1.000000, 702.051270, 1545658549.264051, 4.000000, 4.000000, 4.000000, 4.000000, 4.000000, 4.000000, 4.000000, 4.000000, 4.000000, 4.000000, 4.000000, 4.000000, 4.000000, 4.000000, 4.000000, 4.000000
67.000000, 0.000000, 4247.179199, 4221.538574, 4250.256348, 4219.487305, 4201.538574, 4200.000000, 4313.846191, 4205.127930, 4197.436035, 4213.846191, 4248.717773, 4249.743652, 4297.436035, 4280.512695, 3571.000000, 8221.000000, 8487.000000, 0.000000, 0.000000, 0.000000, 1.000000, 710.256378, 1545658549.272256, 4.000000, 4.000000, 4.000000, 4.000000, 4.000000, 4.000000, 4.000000, 4.000000, 4.000000, 4.000000, 4.000000, 4.000000, 4.000000, 4.000000, 4.000000, 4.000000
68.000000, 0.000000, 4247.692383, 4217.948730, 4250.769043, 4212.307617, 4195.897461, 4190.769043, 4323.076660, 4218.974121, 4210.256348, 4221.025391, 4250.256348, 4252.820313, 4300.512695, 4272.307617, 3568.000000, 8221.000000, 8487.000000, 0.000000, 0.000000, 0.000000, 1.000000, 717.948700, 1545658549.279949, 4.000000, 4.000000, 4.000000, 4.000000, 4.000000, 4.000000, 4.000000, 4.000000, 4.000000, 4.000000, 4.000000, 4.000000, 4.000000, 4.000000, 4.000000, 4.000000
69.000000, 0.000000, 4221.538574, 4189.743652, 4226.153809, 4190.256348, 4176.922852, 4178.461426, 4310.256348, 4217.948730, 4201.025391, 4207.692383, 4235.384277, 4239.487305, 4277.436035, 4249.230469, 3472.000000, 8181.000000, 8428.000000, 0.000000, 0.000000, 0.000000, 1.000000, 726.153809, 1545658549.288154, 4.000000, 4.000000, 4.000000, 4.000000, 4.000000, 4.000000, 4.000000, 4.000000, 4.000000, 4.000000, 4.000000, 4.000000, 4.000000, 4.000000, 4.000000, 4.000000
70.000000, 0.000000, 4172.820313, 4137.436035, 4180.512695, 4144.102539, 4136.410156, 4135.897461, 4251.794922, 4165.641113, 4144.615234, 4157.948730, 4193.333008, 4198.974121, 4222.563965, 4202.051270, 3405.000000, 8181.000000, 8428.000000, 0.000000, 0.000000, 0.000000, 1.000000, 733.846130, 1545658549.295846, 4.000000, 4.000000, 4.000000, 4.000000, 4.000000, 4.000000, 4.000000, 4.000000, 4.000000, 4.000000, 4.000000, 4.000000, 4.000000, 4.000000, 4.000000, 4.000000
71.000000, 0.000000, 4139.487305, 4107.179199, 4150.769043, 4108.205078, 4101.538574, 4091.794678, 4198.461426, 4109.743652, 4094.358887, 4120.512695, 4152.307617, 4166.153809, 4174.358887, 4161.538574, 3215.000000, 8164.000000, 8391.000000, 0.000000, 0.000000, 0.000000, 1.000000, 741.538452, 1545658549.303539, 4.000000, 4.000000, 4.000000, 4.000000, 4.000000, 4.000000, 4.000000, 4.000000, 4.000000, 4.000000, 4.000000, 4.000000, 4.000000, 4.000000, 4.000000, 4.000000
72.000000, 0.000000, 4134.871582, 4111.281738, 4146.666504, 4109.230469, 4102.563965, 4087.179443, 4189.743652, 4102.563965, 4089.743408, 4114.871582, 4143.589844, 4162.051270, 4164.102539, 4152.820313, 3422.000000, 8164.000000, 8391.000000, 0.000000, 0.000000, 0.000000, 1.000000, 749.230774, 1545658549.311231, 4.000000, 4.000000, 4.000000, 4.000000, 4.000000, 4.000000, 4.000000, 4.000000, 4.000000, 4.000000, 4.000000, 4.000000, 4.000000, 4.000000, 4.000000, 4.000000
73.000000, 0.000000, 4144.615234, 4117.948730, 4150.769043, 4120.000000, 4120.000000, 4103.076660, 4208.205078, 4116.922852, 4102.563965, 4117.948730, 4155.384277, 4170.256348, 4172.307617, 4161.538574, 3231.000000, 8156.000000, 8367.000000, 0.000000, 0.000000, 0.000000, 1.000000, 757.435852, 1545658549.319436, 4.000000, 4.000000, 4.000000, 4.000000, 4.000000, 4.000000, 4.000000, 4.000000, 4.000000, 4.000000, 4.000000, 4.000000, 4.000000, 4.000000, 4.000000, 4.000000
74.000000, 0.000000, 4154.358887, 4123.076660, 4162.051270, 4124.615234, 4126.153809, 4105.641113, 4216.922852, 4125.641113, 4112.307617, 4128.717773, 4167.179199, 4180.000000, 4182.563965, 4172.307617, 3541.000000, 8156.000000, 8367.000000, 0.000000, 0.000000, 0.000000, 1.000000, 765.128174, 1545658549.327128, 4.000000, 4.000000, 4.000000, 4.000000, 4.000000, 4.000000, 4.000000, 4.000000, 4.000000, 4.000000, 4.000000, 4.000000, 4.000000, 4.000000, 4.000000, 4.000000
75.000000, 0.000000, 4163.076660, 4131.281738, 4176.410156, 4132.820313, 4130.769043, 4105.641113, 4212.307617, 4130.256348, 4124.615234, 4139.487305, 4173.333008, 4190.769043, 4189.230469, 4180.000000, 3250.000000, 8151.000000, 8359.000000, 0.000000, 0.000000, 0.000000, 1.000000, 772.820496, 1545658549.334821, 4.000000, 4.000000, 4.000000, 4.000000, 4.000000, 4.000000, 4.000000, 4.000000, 4.000000, 4.000000, 4.000000, 4.000000, 4.000000, 4.000000, 4.000000, 4.000000
76.000000, 0.000000, 4178.974121, 4150.256348, 4188.717773, 4151.281738, 4148.717773, 4125.127930, 4221.025391, 4138.461426, 4133.333008, 4144.102539, 4182.051270, 4205.641113, 4197.948730, 4191.794922, 3513.000000, 8151.000000, 8359.000000, 0.000000, 0.000000, 0.000000, 1.000000, 781.025635, 1545658549.343026, 4.000000, 4.000000, 4.000000, 4.000000, 4.000000, 4.000000, 4.000000, 4.000000, 4.000000, 4.000000, 4.000000, 4.000000, 4.000000, 4.000000, 4.000000, 4.000000
77.000000, 0.000000, 4202.051270, 4181.025391, 4210.256348, 4177.948730, 4171.794922, 4152.307617, 4245.127930, 4157.948730, 4147.179199, 4164.102539, 4207.692383, 4228.717773, 4221.538574, 4214.358887, 3155.000000, 8164.000000, 8360.000000, 0.000000, 0.000000, 0.000000, 1.000000, 788.717957, 1545658549.350718, 4.000000, 4.000000, 4.000000, 4.000000, 4.000000, 4.000000, 4.000000, 4.000000, 4.000000, 4.000000, 4.000000, 4.000000, 4.000000, 4.000000, 4.000000, 4.000000
78.000000, 0.000000, 4212.820313, 4195.384277, 4228.205078, 4191.794922, 4184.102539, 4164.615234, 4260.512695, 4181.538574, 4171.794922, 4192.307617, 4229.230469, 4244.102539, 4243.076660, 4230.256348, 3541.000000, 8164.000000, 8360.000000, 0.000000, 0.000000, 0.000000, 1.000000, 796.923035, 1545658549.358923, 4.000000, 4.000000, 4.000000, 4.000000, 4.000000, 4.000000, 4.000000, 4.000000, 4.000000, 4.000000, 4.000000, 4.000000, 4.000000, 4.000000, 4.000000, 4.000000
79.000000, 0.000000, 4192.307617, 4170.256348, 4205.641113, 4169.743652, 4167.179199, 4150.769043, 4242.563965, 4172.307617, 4170.769043, 4181.025391, 4210.769043, 4227.692383, 4222.051270, 4212.820313, 3250.000000, 8179.000000, 8368.000000, 0.000000, 0.000000, 0.000000, 1.000000, 804.615356, 1545658549.366615, 4.000000, 4.000000, 4.000000, 4.000000, 4.000000, 4.000000, 4.000000, 4.000000, 4.000000, 4.000000, 4.000000, 4.000000, 4.000000, 4.000000, 4.000000, 4.000000
80.000000, 0.000000, 4156.922852, 4135.384277, 4166.153809, 4137.436035, 4139.487305, 4125.127930, 4210.256348, 4137.436035, 4136.410156, 4138.974121, 4169.230469, 4194.358887, 4177.948730, 4177.948730, 3513.000000, 8179.000000, 8368.000000, 0.000000, 0.000000, 0.000000, 1.000000, 812.820496, 1545658549.374820, 4.000000, 4.000000, 4.000000, 4.000000, 4.000000, 4.000000, 4.000000, 4.000000, 4.000000, 4.000000, 4.000000, 4.000000, 4.000000, 4.000000, 4.000000, 4.000000
81.000000, 0.000000, 4147.692383, 4132.820313, 4160.512695, 4132.820313, 4138.461426, 4118.974121, 4203.076660, 4128.717773, 4124.102539, 4127.179199, 4152.307617, 4180.512695, 4164.615234, 4166.153809, 3155.000000, 8214.000000, 8378.000000, 0.000000, 0.000000, 0.000000, 1.000000, 820.512817, 1545658549.382513, 4.000000, 4.000000, 4.000000, 4.000000, 4.000000, 4.000000, 4.000000, 4.000000, 4.000000, 4.000000, 4.000000, 4.000000, 4.000000, 4.000000, 4.000000, 4.000000
82.000000, 0.000000, 4156.410156, 4139.487305, 4167.179199, 4140.000000, 4144.615234, 4126.153809, 4210.769043, 4141.538574, 4134.871582, 4138.461426, 4157.436035, 4186.666504, 4172.820313, 4170.256348, 3541.000000, 8214.000000, 8378.000000, 0.000000, 0.000000, 0.000000, 1.000000, 828.205078, 1545658549.390205, 4.000000, 4.000000, 4.000000, 4.000000, 4.000000, 4.000000, 4.000000, 4.000000, 4.000000, 4.000000, 4.000000, 4.000000, 4.000000, 4.000000, 4.000000, 4.000000
83.000000, 0.000000, 4152.307617, 4129.743652, 4155.897461, 4132.820313, 4135.384277, 4122.051270, 4203.589844, 4136.922852, 4126.153809, 4129.743652, 4155.384277, 4184.102539, 4166.153809, 4164.615234, 3250.000000, 8221.000000, 8394.000000, 0.000000, 0.000000, 0.000000, 1.000000, 836.410217, 1545658549.398410, 4.000000, 4.000000, 4.000000, 4.000000, 4.000000, 4.000000, 4.000000, 4.000000, 4.000000, 4.000000, 4.000000, 4.000000, 4.000000, 4.000000, 4.000000, 4.000000
84.000000, 0.000000, 4143.076660, 4125.641113, 4148.205078, 4125.641113, 4130.769043, 4116.410156, 4192.820313, 4126.666504, 4111.794922, 4114.871582, 4147.179199, 4174.358887, 4155.384277, 4152.307617, 3513.000000, 8221.000000, 8394.000000, 0.000000, 0.000000, 0.000000, 1.000000, 844.102539, 1545658549.406103, 4.000000, 4.000000, 4.000000, 4.000000, 4.000000, 4.000000, 4.000000, 4.000000, 4.000000, 4.000000, 4.000000, 4.000000, 4.000000, 4.000000, 4.000000, 4.000000
85.000000, 0.000000, 4150.769043, 4135.384277, 4156.922852, 4133.333008, 4137.948730, 4122.051270, 4195.384277, 4131.281738, 4117.436035, 4119.487305, 4146.666504, 4178.461426, 4154.871582, 4151.281738, 3155.000000, 8222.000000, 8408.000000, 0.000000, 0.000000, 0.000000, 1.000000, 852.307678, 1545658549.414308, 4.000000, 4.000000, 4.000000, 4.000000, 4.000000, 4.000000, 4.000000, 4.000000, 4.000000, 4.000000, 4.000000, 4.000000, 4.000000, 4.000000, 4.000000, 4.000000
86.000000, 0.000000, 4161.538574, 4141.538574, 4166.666504, 4143.076660, 4141.538574, 4126.153809, 4202.563965, 4140.512695, 4125.127930, 4128.205078, 4159.487305, 4192.820313, 4162.051270, 4161.538574, 3541.000000, 8222.000000, 8408.000000, 0.000000, 0.000000, 0.000000, 1.000000, 860.000000, 1545658549.422000, 4.000000, 4.000000, 4.000000, 4.000000, 4.000000, 4.000000, 4.000000, 4.000000, 4.000000, 4.000000, 4.000000, 4.000000, 4.000000, 4.000000, 4.000000, 4.000000
87.000000, 0.000000, 4170.769043, 4155.384277, 4178.461426, 4156.922852, 4157.436035, 4134.358887, 4215.897461, 4155.384277, 4139.487305, 4142.051270, 4182.051270, 4204.102539, 4176.922852, 4173.333008, 3250.000000, 8210.000000, 8418.000000, 0.000000, 0.000000, 0.000000, 1.000000, 868.205078, 1545658549.430205, 4.000000, 4.000000, 4.000000, 4.000000, 4.000000, 4.000000, 4.000000, 4.000000, 4.000000, 4.000000, 4.000000, 4.000000, 4.000000, 4.000000, 4.000000, 4.000000
88.000000, 0.000000, 4181.538574, 4176.922852, 4188.717773, 4172.307617, 4179.487305, 4150.256348, 4227.692383, 4172.820313, 4162.563965, 4161.538574, 4195.897461, 4208.717773, 4187.179199, 4178.461426, 3513.000000, 8210.000000, 8418.000000, 0.000000, 0.000000, 0.000000, 1.000000, 875.897400, 1545658549.437897, 4.000000, 4.000000, 4.000000, 4.000000, 4.000000, 4.000000, 4.000000, 4.000000, 4.000000, 4.000000, 4.000000, 4.000000, 4.000000, 4.000000, 4.000000, 4.000000
89.000000, 0.000000, 4170.769043, 4165.127930, 4176.410156, 4161.538574, 4167.692383, 4146.153809, 4214.871582, 4162.051270, 4156.410156, 4154.871582, 4183.589844, 4196.410156, 4170.256348, 4162.563965, 3155.000000, 8198.000000, 8423.000000, 0.000000, 0.000000, 0.000000, 1.000000, 884.102539, 1545658549.446103, 4.000000, 4.000000, 4.000000, 4.000000, 4.000000, 4.000000, 4.000000, 4.000000, 4.000000, 4.000000, 4.000000, 4.000000, 4.000000, 4.000000, 4.000000, 4.000000
90.000000, 0.000000, 4148.205078, 4136.922852, 4154.871582, 4138.461426, 4143.076660, 4127.692383, 4199.487305, 4140.000000, 4131.794922, 4135.897461, 4165.127930, 4175.384277, 4141.538574, 4138.461426, 3541.000000, 8198.000000, 8423.000000, 0.000000, 0.000000, 0.000000, 1.000000, 891.794861, 1545658549.453795, 4.000000, 4.000000, 4.000000, 4.000000, 4.000000, 4.000000, 4.000000, 4.000000, 4.000000, 4.000000, 4.000000, 4.000000, 4.000000, 4.000000, 4.000000, 4.000000
91.000000, 0.000000, 4149.743652, 4138.461426, 4153.846191, 4140.000000, 4144.615234, 4125.641113, 4199.487305, 4141.025391, 4129.743652, 4135.384277, 4168.205078, 4172.820313, 4137.948730, 4137.436035, 3250.000000, 8204.000000, 8415.000000, 0.000000, 0.000000, 0.000000, 1.000000, 900.000000, 1545658549.462000, 4.000000, 4.000000, 4.000000, 4.000000, 4.000000, 4.000000, 4.000000, 4.000000, 4.000000, 4.000000, 4.000000, 4.000000, 4.000000, 4.000000, 4.000000, 4.000000
92.000000, 0.000000, 4155.384277, 4145.641113, 4157.948730, 4141.025391, 4143.589844, 4125.641113, 4192.307617, 4135.384277, 4126.153809, 4134.358887, 4169.230469, 4175.897461, 4144.102539, 4141.025391, 3513.000000, 8204.000000, 8415.000000, 0.000000, 0.000000, 0.000000, 1.000000, 907.692261, 1545658549.469692, 4.000000, 4.000000, 4.000000, 4.000000, 4.000000, 4.000000, 4.000000, 4.000000, 4.000000, 4.000000, 4.000000, 4.000000, 4.000000, 4.000000, 4.000000, 4.000000
93.000000, 0.000000, 4136.410156, 4126.153809, 4143.076660, 4124.615234, 4126.153809, 4111.281738, 4171.281738, 4108.205078, 4102.563965, 4115.897461, 4150.769043, 4161.025391, 4128.717773, 4123.076660, 3155.000000, 8215.000000, 8405.000000, 0.000000, 0.000000, 0.000000, 1.000000, 915.897400, 1545658549.477897, 4.000000, 4.000000, 4.000000, 4.000000, 4.000000, 4.000000, 4.000000, 4.000000, 4.000000, 4.000000, 4.000000, 4.000000, 4.000000, 4.000000, 4.000000, 4.000000
94.000000, 0.000000, 4124.102539, 4111.794922, 4130.769043, 4116.922852, 4119.487305, 4102.051270, 4162.051270, 4096.922852, 4092.307617, 4105.127930, 4143.589844, 4146.153809, 4117.436035, 4109.230469, 3541.000000, 8215.000000, 8405.000000, 0.000000, 0.000000, 0.000000, 1.000000, 923.589722, 1545658549.485590, 4.000000, 4.000000, 4.000000, 4.000000, 4.000000, 4.000000, 4.000000, 4.000000, 4.000000, 4.000000, 4.000000, 4.000000, 4.000000, 4.000000, 4.000000, 4.000000
95.000000, 0.000000, 4136.410156, 4128.205078, 4140.000000, 4123.076660, 4124.102539, 4105.127930, 4170.256348, 4112.307617, 4105.127930, 4115.384277, 4152.307617, 4155.897461, 4134.871582, 4118.461426, 3250.000000, 8212.000000, 8401.000000, 0.000000, 0.000000, 0.000000, 1.000000, 931.794861, 1545658549.493795, 4.000000, 4.000000, 4.000000, 4.000000, 4.000000, 4.000000, 4.000000, 4.000000, 4.000000, 4.000000, 4.000000, 4.000000, 4.000000, 4.000000, 4.000000, 4.000000
96.000000, 0.000000, 4145.127930, 4140.512695, 4149.230469, 4126.666504, 4127.692383, 4110.769043, 4178.974121, 4124.615234, 4114.871582, 4126.153809, 4160.512695, 4168.205078, 4152.307617, 4130.256348, 3513.000000, 8212.000000, 8401.000000, 0.000000, 0.000000, 0.000000, 1.000000, 939.487183, 1545658549.501487, 4.000000, 4.000000, 4.000000, 4.000000, 4.000000, 4.000000, 4.000000, 4.000000, 4.000000, 4.000000, 4.000000, 4.000000, 4.000000, 4.000000, 4.000000, 4.000000
97.000000, 0.000000, 4144.615234, 4137.436035, 4149.230469, 4128.717773, 4130.256348, 4113.846191, 4180.000000, 4117.948730, 4106.666504, 4120.512695, 4163.076660, 4165.127930, 4147.692383, 4134.358887, 3155.000000, 8194.000000, 8368.000000, 0.000000, 0.000000, 0.000000, 1.000000, 947.179443, 1545658549.509179, 4.000000, 4.000000, 4.000000, 4.000000, 4.000000, 4.000000, 4.000000, 4.000000, 4.000000, 4.000000, 4.000000, 4.000000, 4.000000, 4.000000, 4.000000, 4.000000
98.000000, 0.000000, 4153.846191, 4148.717773, 4161.025391, 4144.102539, 4137.436035, 4125.127930, 4186.153809, 4116.922852, 4106.666504, 4118.974121, 4169.743652, 4166.666504, 4149.743652, 4141.025391, 3541.000000, 8194.000000, 8368.000000, 0.000000, 0.000000, 0.000000, 1.000000, 955.384583, 1545658549.517385, 4.000000, 4.000000, 4.000000, 4.000000, 4.000000, 4.000000, 4.000000, 4.000000, 4.000000, 4.000000, 4.000000, 4.000000, 4.000000, 4.000000, 4.000000, 4.000000
99.000000, 0.000000, 4161.538574, 4161.538574, 4169.743652, 4155.897461, 4146.153809, 4136.410156, 4193.846191, 4132.307617, 4120.512695, 4133.333008, 4177.436035, 4173.846191, 4160.000000, 4144.615234, 3250.000000, 8184.000000, 8356.000000, 0.000000, 0.000000, 0.000000, 1.000000, 963.076904, 1545658549.525077, 4.000000, 4.000000, 4.000000, 4.000000, 4.000000, 4.000000, 4.000000, 4.000000, 4.000000, 4.000000, 4.000000, 4.000000, 4.000000, 4.000000, 4.000000, 4.000000
