title:127, recorded:24.12.18 15.35.22, timestamp started:2018-12-24T15:35:22.089+02:00;1545658522.089, sampling:128, subject:, labels:COUNTER INTERPOLATED AF3 F7 F3 FC5 T7 P7 O1 O2 P8 T8 FC6 F4 F8 AF4 RAW_CQ GYROX GYROY MARKER MARKER_HARDWARE SYNC TIME_STAMP_s TIME_STAMP_ms TimeStamp CQ_AF3 CQ_F7 CQ_F3 CQ_FC5 CQ_T7 CQ_P7 CQ_O1 CQ_O2 CQ_P8 CQ_T8 CQ_FC6 CQ_F4 CQ_F8 CQ_AF4 CQ_CMS CQ_DRL, chan:40, samples:1162, units:emotiv
77.000000, 0.000000, 4154.358887, 4182.563965, 4163.589844, 4166.666504, 4181.538574, 4182.051270, 4182.051270, 4162.563965, 4171.794922, 4151.794922, 4170.256348, 4165.127930, 4168.717773, 4156.922852, 3144.000000, 8226.000000, 8218.000000, 1.000000, 2.000000, 0.000000, 0.000000, 0.000000, 1545658522.089000, 4.000000, 4.000000, 4.000000, 4.000000, 4.000000, 4.000000, 4.000000, 4.000000, 4.000000, 4.000000, 4.000000, 4.000000, 4.000000, 4.000000, 4.000000, 4.000000
78.000000, 0.000000, 4154.871582, 4183.076660, 4168.717773, 4168.205078, 4180.000000, 4182.051270, 4178.974121, 4162.563965, 4176.410156, 4158.974121, 4172.307617, 4171.794922, 4179.487305, 4157.948730, 3539.000000, 8226.000000, 8218.000000, 0.000000, 0.000000, 0.000000, 0.000000, 8.205139, 1545658522.097205, 4.000000, 4.000000, 4.000000, 4.000000, 4.000000, 4.000000, 4.000000, 4.000000, 4.000000, 4.000000, 4.000000, 4.000000, 4.000000, 4.000000, 4.000000, 4.000000
79.000000, 0.000000, 4151.281738, 4170.769043, 4160.000000, 4160.000000, 4171.281738, 4166.153809, 4165.641113, 4154.358887, 4167.692383, 4148.717773, 4157.948730, 4160.512695, 4167.692383, 4152.307617, 3262.000000, 8227.000000, 8229.000000, 0.000000, 0.000000, 0.000000, 0.000000, 15.897430, 1545658522.104897, 4.000000, 4.000000, 4.000000, 4.000000, 4.000000, 4.000000, 4.000000, 4.000000, 4.000000, 4.000000, 4.000000, 4.000000, 4.000000, 4.000000, 4.000000, 4.000000
80.000000, 0.000000, 4148.717773, 4165.127930, 4152.820313, 4158.974121, 4164.102539, 4162.051270, 4169.743652, 4148.205078, 4143.589844, 4127.179199, 4153.333008, 4151.794922, 4151.794922, 4148.717773, 3506.000000, 8227.000000, 8229.000000, 0.000000, 0.000000, 0.000000, 0.000000, 23.589752, 1545658522.112590, 4.000000, 4.000000, 4.000000, 4.000000, 4.000000, 4.000000, 4.000000, 4.000000, 4.000000, 4.000000, 4.000000, 4.000000, 4.000000, 4.000000, 4.000000, 4.000000
81.000000, 0.000000, 4147.179199, 4169.743652, 4152.820313, 4156.410156, 4158.974121, 4166.153809, 4181.025391, 4158.461426, 4140.512695, 4118.461426, 4151.794922, 4151.794922, 4149.743652, 4149.743652, 3144.000000, 8229.000000, 8220.000000, 0.000000, 0.000000, 0.000000, 0.000000, 31.794861, 1545658522.120795, 4.000000, 4.000000, 4.000000, 4.000000, 4.000000, 4.000000, 4.000000, 4.000000, 4.000000, 4.000000, 4.000000, 4.000000, 4.000000, 4.000000, 4.000000, 4.000000
82.000000, 0.000000, 4148.717773, 4168.205078, 4159.487305, 4152.307617, 4162.051270, 4163.589844, 4175.384277, 4156.410156, 4154.358887, 4126.153809, 4151.281738, 4157.436035, 4153.333008, 4151.794922, 3539.000000, 8229.000000, 8220.000000, 0.000000, 0.000000, 0.000000, 0.000000, 39.487183, 1545658522.128487, 4.000000, 4.000000, 4.000000, 4.000000, 4.000000, 4.000000, 4.000000, 4.000000, 4.000000, 4.000000, 4.000000, 4.000000, 4.000000, 4.000000, 4.000000, 4.000000
83.000000, 0.000000, 4153.846191, 4168.205078, 4165.127930, 4157.948730, 4165.127930, 4161.538574, 4158.974121, 4126.153809, 4148.205078, 4129.743652, 4159.487305, 4162.051270, 4155.897461, 4154.358887, 3262.000000, 8233.000000, 8214.000000, 0.000000, 0.000000, 0.000000, 0.000000, 47.692322, 1545658522.136692, 4.000000, 4.000000, 4.000000, 4.000000, 4.000000, 4.000000, 4.000000, 4.000000, 4.000000, 4.000000, 4.000000, 4.000000, 4.000000, 4.000000, 4.000000, 4.000000
84.000000, 0.000000, 4152.820313, 4170.769043, 4161.538574, 4158.461426, 4157.948730, 4158.461426, 4159.487305, 4123.076660, 4142.563965, 4126.666504, 4160.000000, 4160.000000, 4153.333008, 4155.897461, 3506.000000, 8233.000000, 8214.000000, 0.000000, 0.000000, 0.000000, 0.000000, 55.384613, 1545658522.144385, 4.000000, 4.000000, 4.000000, 4.000000, 4.000000, 4.000000, 4.000000, 4.000000, 4.000000, 4.000000, 4.000000, 4.000000, 4.000000, 4.000000, 4.000000, 4.000000
85.000000, 0.000000, 4152.307617, 4170.769043, 4156.410156, 4155.384277, 4157.436035, 4163.076660, 4173.846191, 4145.641113, 4153.846191, 4134.871582, 4155.897461, 4157.948730, 4154.358887, 4156.922852, 3144.000000, 8248.000000, 8215.000000, 0.000000, 0.000000, 0.000000, 0.000000, 63.076935, 1545658522.152077, 4.000000, 4.000000, 4.000000, 4.000000, 4.000000, 4.000000, 4.000000, 4.000000, 4.000000, 4.000000, 4.000000, 4.000000, 4.000000, 4.000000, 4.000000, 4.000000
86.000000, 0.000000, 4150.769043, 4164.615234, 4154.358887, 4154.871582, 4160.512695, 4168.205078, 4176.922852, 4143.589844, 4150.769043, 4137.948730, 4157.436035, 4155.897461, 4151.794922, 4155.897461, 3539.000000, 8248.000000, 8215.000000, 0.000000, 0.000000, 0.000000, 0.000000, 71.282043, 1545658522.160282, 4.000000, 4.000000, 4.000000, 4.000000, 4.000000, 4.000000, 4.000000, 4.000000, 4.000000, 4.000000, 4.000000, 4.000000, 4.000000, 4.000000, 4.000000, 4.000000
87.000000, 0.000000, 4149.230469, 4159.487305, 4156.410156, 4154.358887, 4153.333008, 4160.000000, 4172.820313, 4138.974121, 4152.307617, 4136.922852, 4165.127930, 4156.410156, 4150.256348, 4158.461426, 3262.000000, 8248.000000, 8213.000000, 0.000000, 0.000000, 0.000000, 0.000000, 78.974365, 1545658522.167974, 4.000000, 4.000000, 4.000000, 4.000000, 4.000000, 4.000000, 4.000000, 4.000000, 4.000000, 4.000000, 4.000000, 4.000000, 4.000000, 4.000000, 4.000000, 4.000000
88.000000, 0.000000, 4161.025391, 4169.743652, 4164.615234, 4159.487305, 4155.897461, 4160.000000, 4170.256348, 4153.333008, 4176.410156, 4152.820313, 4176.410156, 4165.127930, 4165.641113, 4168.205078, 3506.000000, 8248.000000, 8213.000000, 0.000000, 0.000000, 0.000000, 0.000000, 87.179474, 1545658522.176179, 4.000000, 4.000000, 4.000000, 4.000000, 4.000000, 4.000000, 4.000000, 4.000000, 4.000000, 4.000000, 4.000000, 4.000000, 4.000000, 4.000000, 4.000000, 4.000000
89.000000, 0.000000, 4170.256348, 4176.922852, 4175.897461, 4161.538574, 4161.538574, 4170.256348, 4176.922852, 4160.512695, 4176.410156, 4156.922852, 4179.487305, 4172.820313, 4171.794922, 4176.922852, 3144.000000, 8248.000000, 8212.000000, 0.000000, 0.000000, 0.000000, 0.000000, 94.871796, 1545658522.183872, 4.000000, 4.000000, 4.000000, 4.000000, 4.000000, 4.000000, 4.000000, 4.000000, 4.000000, 4.000000, 4.000000, 4.000000, 4.000000, 4.000000, 4.000000, 4.000000
90.000000, 0.000000, 4168.205078, 4168.205078, 4181.538574, 4161.538574, 4153.333008, 4169.230469, 4192.820313, 4177.948730, 4171.281738, 4146.153809, 4177.436035, 4176.410156, 4157.948730, 4181.538574, 3539.000000, 8248.000000, 8212.000000, 0.000000, 0.000000, 0.000000, 0.000000, 102.564087, 1545658522.191564, 4.000000, 4.000000, 4.000000, 4.000000, 4.000000, 4.000000, 4.000000, 4.000000, 4.000000, 4.000000, 4.000000, 4.000000, 4.000000, 4.000000, 4.000000, 4.000000
91.000000, 0.000000, 4172.307617, 4168.717773, 4188.205078, 4166.666504, 4156.410156, 4168.205078, 4182.051270, 4182.051270, 4186.666504, 4154.871582, 4186.153809, 4184.102539, 4156.410156, 4189.743652, 3262.000000, 8246.000000, 8210.000000, 0.000000, 0.000000, 0.000000, 0.000000, 110.769226, 1545658522.199769, 4.000000, 4.000000, 4.000000, 4.000000, 4.000000, 4.000000, 4.000000, 4.000000, 4.000000, 4.000000, 4.000000, 4.000000, 4.000000, 4.000000, 4.000000, 4.000000
92.000000, 0.000000, 4172.307617, 4175.384277, 4186.153809, 4163.589844, 4163.076660, 4171.281738, 4153.846191, 4145.127930, 4168.717773, 4151.794922, 4187.179199, 4180.000000, 4161.025391, 4187.692383, 3506.000000, 8246.000000, 8210.000000, 0.000000, 0.000000, 0.000000, 0.000000, 118.461548, 1545658522.207461, 4.000000, 4.000000, 4.000000, 4.000000, 4.000000, 4.000000, 4.000000, 4.000000, 4.000000, 4.000000, 4.000000, 4.000000, 4.000000, 4.000000, 4.000000, 4.000000
93.000000, 0.000000, 4161.025391, 4164.102539, 4172.307617, 4153.846191, 4156.922852, 4167.179199, 4161.538574, 4132.820313, 4137.948730, 4126.153809, 4169.230469, 4163.076660, 4145.127930, 4171.281738, 3144.000000, 8242.000000, 8200.000000, 0.000000, 0.000000, 0.000000, 0.000000, 126.666656, 1545658522.215667, 4.000000, 4.000000, 4.000000, 4.000000, 4.000000, 4.000000, 4.000000, 4.000000, 4.000000, 4.000000, 4.000000, 4.000000, 4.000000, 4.000000, 4.000000, 4.000000
94.000000, 0.000000, 4154.871582, 4157.436035, 4169.230469, 4155.384277, 4160.000000, 4174.871582, 4192.307617, 4157.436035, 4148.717773, 4128.205078, 4165.127930, 4162.051270, 4134.358887, 4165.641113, 3539.000000, 8242.000000, 8200.000000, 0.000000, 0.000000, 0.000000, 0.000000, 134.358978, 1545658522.223359, 4.000000, 4.000000, 4.000000, 4.000000, 4.000000, 4.000000, 4.000000, 4.000000, 4.000000, 4.000000, 4.000000, 4.000000, 4.000000, 4.000000, 4.000000, 4.000000
95.000000, 0.000000, 4154.871582, 4166.666504, 4172.307617, 4160.000000, 4171.794922, 4186.666504, 4200.512695, 4158.461426, 4162.563965, 4145.641113, 4171.794922, 4167.179199, 4138.461426, 4169.230469, 3262.000000, 8243.000000, 8198.000000, 0.000000, 0.000000, 0.000000, 0.000000, 142.051270, 1545658522.231051, 4.000000, 4.000000, 4.000000, 4.000000, 4.000000, 4.000000, 4.000000, 4.000000, 4.000000, 4.000000, 4.000000, 4.000000, 4.000000, 4.000000, 4.000000, 4.000000
96.000000, 0.000000, 4159.487305, 4174.358887, 4169.743652, 4156.922852, 4172.307617, 4175.897461, 4178.461426, 4143.076660, 4149.743652, 4141.538574, 4168.717773, 4162.563965, 4140.000000, 4171.281738, 3506.000000, 8243.000000, 8198.000000, 0.000000, 0.000000, 0.000000, 0.000000, 150.256409, 1545658522.239256, 4.000000, 4.000000, 4.000000, 4.000000, 4.000000, 4.000000, 4.000000, 4.000000, 4.000000, 4.000000, 4.000000, 4.000000, 4.000000, 4.000000, 4.000000, 4.000000
97.000000, 0.000000, 4162.563965, 4176.410156, 4166.153809, 4157.436035, 4168.205078, 4166.153809, 4170.769043, 4150.769043, 4148.717773, 4136.922852, 4167.179199, 4155.384277, 4133.846191, 4169.230469, 3144.000000, 8241.000000, 8194.000000, 0.000000, 0.000000, 0.000000, 0.000000, 157.948700, 1545658522.246949, 4.000000, 4.000000, 4.000000, 4.000000, 4.000000, 4.000000, 4.000000, 4.000000, 4.000000, 4.000000, 4.000000, 4.000000, 4.000000, 4.000000, 4.000000, 4.000000
98.000000, 0.000000, 4159.487305, 4178.461426, 4168.205078, 4163.076660, 4173.846191, 4178.974121, 4189.743652, 4155.384277, 4160.512695, 4137.436035, 4166.153809, 4153.333008, 4123.589844, 4167.179199, 3539.000000, 8241.000000, 8194.000000, 0.000000, 0.000000, 0.000000, 0.000000, 166.153839, 1545658522.255154, 4.000000, 4.000000, 4.000000, 4.000000, 4.000000, 4.000000, 4.000000, 4.000000, 4.000000, 4.000000, 4.000000, 4.000000, 4.000000, 4.000000, 4.000000, 4.000000
99.000000, 0.000000, 4162.563965, 4181.538574, 4172.820313, 4172.307617, 4178.461426, 4186.153809, 4188.717773, 4147.179199, 4169.230469, 4139.487305, 4168.205078, 4163.589844, 4130.769043, 4172.307617, 3262.000000, 8241.000000, 8201.000000, 0.000000, 0.000000, 0.000000, 0.000000, 173.846161, 1545658522.262846, 4.000000, 4.000000, 4.000000, 4.000000, 4.000000, 4.000000, 4.000000, 4.000000, 4.000000, 4.000000, 4.000000, 4.000000, 4.000000, 4.000000, 4.000000, 4.000000
100.000000, 0.000000, 4162.563965, 4177.436035, 4171.281738, 4166.666504, 4174.358887, 4169.230469, 4161.538574, 4147.692383, 4172.307617, 4149.230469, 4170.769043, 4167.692383, 4136.922852, 4174.871582, 3506.000000, 8241.000000, 8201.000000, 0.000000, 0.000000, 0.000000, 0.000000, 181.538452, 1545658522.270539, 4.000000, 4.000000, 4.000000, 4.000000, 4.000000, 4.000000, 4.000000, 4.000000, 4.000000, 4.000000, 4.000000, 4.000000, 4.000000, 4.000000, 4.000000, 4.000000
101.000000, 0.000000, 4151.281738, 4166.153809, 4165.127930, 4152.307617, 4164.615234, 4151.794922, 4150.769043, 4138.974121, 4160.512695, 4145.641113, 4169.230469, 4158.974121, 4123.589844, 4169.743652, 3144.000000, 8239.000000, 8200.000000, 0.000000, 0.000000, 0.000000, 0.000000, 189.743591, 1545658522.278744, 4.000000, 4.000000, 4.000000, 4.000000, 4.000000, 4.000000, 4.000000, 4.000000, 4.000000, 4.000000, 4.000000, 4.000000, 4.000000, 4.000000, 4.000000, 4.000000
102.000000, 0.000000, 4158.974121, 4170.769043, 4167.179199, 4160.512695, 4162.051270, 4154.871582, 4160.000000, 4124.615234, 4151.794922, 4138.974121, 4178.461426, 4162.563965, 4127.179199, 4176.410156, 3539.000000, 8239.000000, 8200.000000, 0.000000, 0.000000, 0.000000, 0.000000, 197.435883, 1545658522.286436, 4.000000, 4.000000, 4.000000, 4.000000, 4.000000, 4.000000, 4.000000, 4.000000, 4.000000, 4.000000, 4.000000, 4.000000, 4.000000, 4.000000, 4.000000, 4.000000
103.000000, 0.000000, 4175.897461, 4186.153809, 4175.384277, 4170.769043, 4170.769043, 4165.127930, 4164.102539, 4129.230469, 4158.974121, 4149.230469, 4187.179199, 4175.384277, 4142.051270, 4186.666504, 3262.000000, 8240.000000, 8198.000000, 0.000000, 0.000000, 0.000000, 0.000000, 205.641022, 1545658522.294641, 4.000000, 4.000000, 4.000000, 4.000000, 4.000000, 4.000000, 4.000000, 4.000000, 4.000000, 4.000000, 4.000000, 4.000000, 4.000000, 4.000000, 4.000000, 4.000000
104.000000, 0.000000, 4162.051270, 4178.974121, 4169.230469, 4153.846191, 4168.205078, 4162.051270, 4166.153809, 4141.025391, 4162.051270, 4150.769043, 4175.384277, 4165.641113, 4125.641113, 4174.358887, 3506.000000, 8240.000000, 8198.000000, 0.000000, 0.000000, 0.000000, 0.000000, 213.333344, 1545658522.302333, 4.000000, 4.000000, 4.000000, 4.000000, 4.000000, 4.000000, 4.000000, 4.000000, 4.000000, 4.000000, 4.000000, 4.000000, 4.000000, 4.000000, 4.000000, 4.000000
105.000000, 0.000000, 4146.153809, 4163.589844, 4156.410156, 4138.461426, 4155.384277, 4158.461426, 4169.743652, 4145.641113, 4162.563965, 4142.051270, 4166.153809, 4152.820313, 4108.205078, 4166.153809, 3144.000000, 8235.000000, 8218.000000, 0.000000, 0.000000, 0.000000, 0.000000, 221.025665, 1545658522.310026, 4.000000, 4.000000, 4.000000, 4.000000, 4.000000, 4.000000, 4.000000, 4.000000, 4.000000, 4.000000, 4.000000, 4.000000, 4.000000, 4.000000, 4.000000, 4.000000
106.000000, 0.000000, 4149.743652, 4162.563965, 4154.358887, 4141.025391, 4153.846191, 4165.127930, 4182.563965, 4154.358887, 4167.179199, 4143.589844, 4168.205078, 4154.871582, 4116.410156, 4169.743652, 3539.000000, 8235.000000, 8218.000000, 0.000000, 0.000000, 0.000000, 0.000000, 229.230743, 1545658522.318231, 4.000000, 4.000000, 4.000000, 4.000000, 4.000000, 4.000000, 4.000000, 4.000000, 4.000000, 4.000000, 4.000000, 4.000000, 4.000000, 4.000000, 4.000000, 4.000000
107.000000, 0.000000, 4142.563965, 4157.948730, 4153.333008, 4139.487305, 4158.974121, 4165.127930, 4185.127930, 4148.717773, 4157.436035, 4136.922852, 4157.436035, 4151.794922, 4113.333008, 4161.025391, 3262.000000, 8235.000000, 8228.000000, 0.000000, 0.000000, 0.000000, 0.000000, 236.923065, 1545658522.325923, 4.000000, 4.000000, 4.000000, 4.000000, 4.000000, 4.000000, 4.000000, 4.000000, 4.000000, 4.000000, 4.000000, 4.000000, 4.000000, 4.000000, 4.000000, 4.000000
108.000000, 0.000000, 4135.897461, 4149.230469, 4148.205078, 4135.897461, 4153.846191, 4155.897461, 4163.076660, 4136.922852, 4142.051270, 4123.589844, 4153.333008, 4147.179199, 4098.974121, 4156.410156, 3506.000000, 8235.000000, 8228.000000, 0.000000, 0.000000, 0.000000, 0.000000, 245.128204, 1545658522.334128, 4.000000, 4.000000, 4.000000, 4.000000, 4.000000, 4.000000, 4.000000, 4.000000, 4.000000, 4.000000, 4.000000, 4.000000, 4.000000, 4.000000, 4.000000, 4.000000
109.000000, 0.000000, 4147.179199, 4153.846191, 4156.410156, 4144.102539, 4152.820313, 4157.436035, 4153.333008, 4142.051270, 4151.281738, 4135.897461, 4168.205078, 4152.820313, 4108.205078, 4169.230469, 3144.000000, 8237.000000, 8216.000000, 0.000000, 0.000000, 0.000000, 0.000000, 252.820526, 1545658522.341820, 4.000000, 4.000000, 4.000000, 4.000000, 4.000000, 4.000000, 4.000000, 4.000000, 4.000000, 4.000000, 4.000000, 4.000000, 4.000000, 4.000000, 4.000000, 4.000000
110.000000, 0.000000, 4155.897461, 4165.641113, 4168.717773, 4151.281738, 4161.538574, 4157.436035, 4153.333008, 4128.205078, 4159.487305, 4147.692383, 4173.846191, 4162.563965, 4125.641113, 4177.948730, 3539.000000, 8237.000000, 8216.000000, 0.000000, 0.000000, 0.000000, 0.000000, 260.512787, 1545658522.349513, 4.000000, 4.000000, 4.000000, 4.000000, 4.000000, 4.000000, 4.000000, 4.000000, 4.000000, 4.000000, 4.000000, 4.000000, 4.000000, 4.000000, 4.000000, 4.000000
111.000000, 0.000000, 4152.820313, 4166.153809, 4169.743652, 4152.307617, 4168.205078, 4154.871582, 4152.307617, 4111.281738, 4149.743652, 4133.846191, 4167.692383, 4168.717773, 4120.512695, 4180.000000, 3262.000000, 8242.000000, 8209.000000, 0.000000, 0.000000, 0.000000, 0.000000, 268.717926, 1545658522.357718, 4.000000, 4.000000, 4.000000, 4.000000, 4.000000, 4.000000, 4.000000, 4.000000, 4.000000, 4.000000, 4.000000, 4.000000, 4.000000, 4.000000, 4.000000, 4.000000
112.000000, 0.000000, 4152.307617, 4162.563965, 4169.743652, 4154.871582, 4168.205078, 4162.051270, 4149.743652, 4129.230469, 4148.205078, 4128.717773, 4169.743652, 4168.717773, 4113.846191, 4183.076660, 3506.000000, 8242.000000, 8209.000000, 0.000000, 0.000000, 0.000000, 0.000000, 276.410248, 1545658522.365410, 4.000000, 4.000000, 4.000000, 4.000000, 4.000000, 4.000000, 4.000000, 4.000000, 4.000000, 4.000000, 4.000000, 4.000000, 4.000000, 4.000000, 4.000000, 4.000000
113.000000, 0.000000, 4154.358887, 4154.871582, 4171.281738, 4146.666504, 4157.436035, 4161.025391, 4146.153809, 4139.487305, 4153.846191, 4140.512695, 4172.820313, 4166.666504, 4117.948730, 4184.102539, 3144.000000, 8247.000000, 8214.000000, 0.000000, 0.000000, 0.000000, 0.000000, 284.615387, 1545658522.373616, 4.000000, 4.000000, 4.000000, 4.000000, 4.000000, 4.000000, 4.000000, 4.000000, 4.000000, 4.000000, 4.000000, 4.000000, 4.000000, 4.000000, 4.000000, 4.000000
114.000000, 0.000000, 4154.358887, 4141.538574, 4170.256348, 4136.922852, 4149.230469, 4155.384277, 4160.512695, 4133.333008, 4155.897461, 4143.076660, 4174.358887, 4169.230469, 4114.358887, 4182.563965, 3539.000000, 8247.000000, 8214.000000, 0.000000, 0.000000, 0.000000, 0.000000, 292.307709, 1545658522.381308, 4.000000, 4.000000, 4.000000, 4.000000, 4.000000, 4.000000, 4.000000, 4.000000, 4.000000, 4.000000, 4.000000, 4.000000, 4.000000, 4.000000, 4.000000, 4.000000
115.000000, 0.000000, 4153.333008, 4138.461426, 4168.717773, 4137.948730, 4151.281738, 4156.410156, 4171.281738, 4146.153809, 4154.358887, 4135.897461, 4170.256348, 4167.692383, 4103.076660, 4177.948730, 3262.000000, 8248.000000, 8217.000000, 0.000000, 0.000000, 0.000000, 0.000000, 299.999969, 1545658522.389000, 4.000000, 4.000000, 4.000000, 4.000000, 4.000000, 4.000000, 4.000000, 4.000000, 4.000000, 4.000000, 4.000000, 4.000000, 4.000000, 4.000000, 4.000000, 4.000000
116.000000, 0.000000, 4152.307617, 4147.179199, 4166.153809, 4137.436035, 4146.666504, 4155.384277, 4161.538574, 4160.000000, 4148.205078, 4126.153809, 4155.384277, 4157.948730, 4097.948730, 4172.307617, 3506.000000, 8248.000000, 8217.000000, 0.000000, 0.000000, 0.000000, 0.000000, 308.205109, 1545658522.397205, 4.000000, 4.000000, 4.000000, 4.000000, 4.000000, 4.000000, 4.000000, 4.000000, 4.000000, 4.000000, 4.000000, 4.000000, 4.000000, 4.000000, 4.000000, 4.000000
117.000000, 0.000000, 4160.000000, 4162.563965, 4171.794922, 4143.076660, 4142.563965, 4153.846191, 4162.051270, 4169.230469, 4157.948730, 4134.871582, 4160.512695, 4163.076660, 4108.717773, 4184.102539, 3144.000000, 8258.000000, 8211.000000, 0.000000, 0.000000, 0.000000, 0.000000, 315.897430, 1545658522.404897, 4.000000, 4.000000, 4.000000, 4.000000, 4.000000, 4.000000, 4.000000, 4.000000, 4.000000, 4.000000, 4.000000, 4.000000, 4.000000, 4.000000, 4.000000, 4.000000
118.000000, 0.000000, 4174.871582, 4182.051270, 4186.666504, 4164.615234, 4150.769043, 4158.461426, 4171.794922, 4184.102539, 4183.589844, 4162.051270, 4187.692383, 4181.538574, 4127.179199, 4203.076660, 3539.000000, 8258.000000, 8211.000000, 0.000000, 0.000000, 0.000000, 0.000000, 324.102570, 1545658522.413103, 4.000000, 4.000000, 4.000000, 4.000000, 4.000000, 4.000000, 4.000000, 4.000000, 4.000000, 4.000000, 4.000000, 4.000000, 4.000000, 4.000000, 4.000000, 4.000000
119.000000, 0.000000, 4178.974121, 4186.666504, 4190.769043, 4168.717773, 4155.384277, 4161.538574, 4170.769043, 4179.487305, 4185.127930, 4169.743652, 4193.846191, 4188.717773, 4131.281738, 4206.666504, 3262.000000, 8258.000000, 8217.000000, 0.000000, 0.000000, 0.000000, 0.000000, 331.794891, 1545658522.420795, 4.000000, 4.000000, 4.000000, 4.000000, 4.000000, 4.000000, 4.000000, 4.000000, 4.000000, 4.000000, 4.000000, 4.000000, 4.000000, 4.000000, 4.000000, 4.000000
120.000000, 0.000000, 4172.307617, 4170.769043, 4185.127930, 4153.846191, 4151.281738, 4167.692383, 4180.000000, 4168.717773, 4170.256348, 4157.436035, 4185.641113, 4184.615234, 4124.615234, 4204.102539, 3506.000000, 8258.000000, 8217.000000, 0.000000, 0.000000, 0.000000, 0.000000, 339.487152, 1545658522.428487, 4.000000, 4.000000, 4.000000, 4.000000, 4.000000, 4.000000, 4.000000, 4.000000, 4.000000, 4.000000, 4.000000, 4.000000, 4.000000, 4.000000, 4.000000, 4.000000
121.000000, 0.000000, 4171.794922, 4163.589844, 4183.589844, 4155.384277, 4151.281738, 4177.948730, 4188.717773, 4173.846191, 4165.641113, 4148.205078, 4183.589844, 4178.974121, 4120.000000, 4202.051270, 3144.000000, 8266.000000, 8223.000000, 0.000000, 0.000000, 0.000000, 0.000000, 347.692291, 1545658522.436692, 4.000000, 4.000000, 4.000000, 4.000000, 4.000000, 4.000000, 4.000000, 4.000000, 4.000000, 4.000000, 4.000000, 4.000000, 4.000000, 4.000000, 4.000000, 4.000000
122.000000, 0.000000, 4169.743652, 4167.692383, 4180.000000, 4161.538574, 4153.846191, 4174.358887, 4173.333008, 4174.871582, 4163.589844, 4143.589844, 4175.897461, 4173.846191, 4113.846191, 4194.871582, 3539.000000, 8266.000000, 8223.000000, 0.000000, 0.000000, 0.000000, 0.000000, 355.384613, 1545658522.444385, 4.000000, 4.000000, 4.000000, 4.000000, 4.000000, 4.000000, 4.000000, 4.000000, 4.000000, 4.000000, 4.000000, 4.000000, 4.000000, 4.000000, 4.000000, 4.000000
123.000000, 0.000000, 4157.436035, 4166.666504, 4170.256348, 4156.922852, 4158.974121, 4175.384277, 4176.410156, 4166.153809, 4158.974121, 4135.897461, 4166.666504, 4168.205078, 4102.051270, 4184.102539, 3262.000000, 8267.000000, 8225.000000, 0.000000, 0.000000, 0.000000, 0.000000, 363.589752, 1545658522.452590, 4.000000, 4.000000, 4.000000, 4.000000, 4.000000, 4.000000, 4.000000, 4.000000, 4.000000, 4.000000, 4.000000, 4.000000, 4.000000, 4.000000, 4.000000, 4.000000
124.000000, 0.000000, 4146.153809, 4161.025391, 4156.922852, 4150.256348, 4166.153809, 4186.153809, 4193.846191, 4165.641113, 4155.897461, 4131.281738, 4159.487305, 4154.871582, 4090.769043, 4173.846191, 3506.000000, 8267.000000, 8225.000000, 0.000000, 0.000000, 0.000000, 0.000000, 371.282013, 1545658522.460282, 4.000000, 4.000000, 4.000000, 4.000000, 4.000000, 4.000000, 4.000000, 4.000000, 4.000000, 4.000000, 4.000000, 4.000000, 4.000000, 4.000000, 4.000000, 4.000000
125.000000, 0.000000, 4155.384277, 4167.692383, 4156.410156, 4155.897461, 4167.692383, 4180.000000, 4178.974121, 4167.179199, 4163.076660, 4143.589844, 4159.487305, 4153.846191, 4095.897217, 4176.410156, 3144.000000, 8267.000000, 8230.000000, 0.000000, 0.000000, 0.000000, 0.000000, 378.974335, 1545658522.467974, 4.000000, 4.000000, 4.000000, 4.000000, 4.000000, 4.000000, 4.000000, 4.000000, 4.000000, 4.000000, 4.000000, 4.000000, 4.000000, 4.000000, 4.000000, 4.000000
126.000000, 0.000000, 4175.384277, 4192.820313, 4175.897461, 4173.333008, 4175.384277, 4171.794922, 4166.153809, 4170.256348, 4176.410156, 4162.563965, 4178.974121, 4175.897461, 4120.512695, 4197.948730, 3539.000000, 8267.000000, 8230.000000, 0.000000, 0.000000, 0.000000, 0.000000, 387.179474, 1545658522.476179, 4.000000, 4.000000, 4.000000, 4.000000, 4.000000, 4.000000, 4.000000, 4.000000, 4.000000, 4.000000, 4.000000, 4.000000, 4.000000, 4.000000, 4.000000, 4.000000
127.000000, 0.000000, 4176.410156, 4197.436035, 4181.538574, 4180.000000, 4180.512695, 4184.102539, 4195.897461, 4192.307617, 4174.871582, 4155.384277, 4188.205078, 4183.076660, 4124.615234, 4203.589844, 56.000000, 8261.000000, 8241.000000, 0.000000, 0.000000, 0.000000, 0.000000, 394.871796, 1545658522.483872, 4.000000, 4.000000, 4.000000, 4.000000, 4.000000, 4.000000, 4.000000, 4.000000, 4.000000, 4.000000, 4.000000, 4.000000, 4.000000, 4.000000, 4.000000, 4.000000
0.000000, 0.000000, 4164.102539, 4174.871582, 4167.692383, 4166.666504, 4163.589844, 4185.641113, 4213.333008, 4203.076660, 4170.256348, 4137.436035, 4173.333008, 4167.179199, 4105.641113, 4185.127930, 3318.000000, 8261.000000, 8241.000000, 0.000000, 0.000000, 0.000000, 0.000000, 403.076935, 1545658522.492077, 4.000000, 4.000000, 4.000000, 4.000000, 4.000000, 4.000000, 4.000000, 4.000000, 4.000000, 4.000000, 4.000000, 4.000000, 4.000000, 4.000000, 4.000000, 4.000000
1.000000, 0.000000, 4165.641113, 4171.281738, 4171.794922, 4164.102539, 4151.794922, 4169.743652, 4185.641113, 4190.256348, 4191.794922, 4159.487305, 4176.922852, 4171.281738, 4115.384277, 4187.179199, 3505.000000, 8253.000000, 8237.000000, 0.000000, 0.000000, 0.000000, 0.000000, 410.769196, 1545658522.499769, 4.000000, 4.000000, 4.000000, 4.000000, 4.000000, 4.000000, 4.000000, 4.000000, 4.000000, 4.000000, 4.000000, 4.000000, 4.000000, 4.000000, 4.000000, 4.000000
2.000000, 0.000000, 4178.974121, 4188.717773, 4189.743652, 4178.461426, 4163.589844, 4167.692383, 4168.205078, 4183.589844, 4200.512695, 4181.538574, 4194.358887, 4189.230469, 4146.666504, 4206.153809, 3302.000000, 8253.000000, 8237.000000, 0.000000, 0.000000, 0.000000, 0.000000, 418.461517, 1545658522.507461, 4.000000, 4.000000, 4.000000, 4.000000, 4.000000, 4.000000, 4.000000, 4.000000, 4.000000, 4.000000, 4.000000, 4.000000, 4.000000, 4.000000, 4.000000, 4.000000
3.000000, 0.000000, 4186.666504, 4196.410156, 4190.769043, 4183.076660, 4168.717773, 4170.256348, 4174.871582, 4182.563965, 4173.333008, 4158.461426, 4189.743652, 4190.256348, 4160.512695, 4206.153809, 3569.000000, 8250.000000, 8242.000000, 0.000000, 0.000000, 0.000000, 0.000000, 426.666656, 1545658522.515667, 4.000000, 4.000000, 4.000000, 4.000000, 4.000000, 4.000000, 4.000000, 4.000000, 4.000000, 4.000000, 4.000000, 4.000000, 4.000000, 4.000000, 4.000000, 4.000000
4.000000, 0.000000, 4185.127930, 4200.000000, 4188.717773, 4185.641113, 4168.205078, 4169.743652, 4170.769043, 4172.820313, 4162.563965, 4142.563965, 4183.589844, 4187.692383, 4171.794922, 4201.538574, 3357.000000, 8250.000000, 8242.000000, 0.000000, 0.000000, 0.000000, 0.000000, 434.358978, 1545658522.523359, 4.000000, 4.000000, 4.000000, 4.000000, 4.000000, 4.000000, 4.000000, 4.000000, 4.000000, 4.000000, 4.000000, 4.000000, 4.000000, 4.000000, 4.000000, 4.000000
5.000000, 0.000000, 4174.871582, 4201.025391, 4190.256348, 4191.281738, 4173.846191, 4176.410156, 4170.256348, 4168.717773, 4175.384277, 4152.820313, 4185.127930, 4188.205078, 4182.563965, 4197.436035, 3465.000000, 8250.000000, 8248.000000, 0.000000, 0.000000, 0.000000, 0.000000, 442.564117, 1545658522.531564, 4.000000, 4.000000, 4.000000, 4.000000, 4.000000, 4.000000, 4.000000, 4.000000, 4.000000, 4.000000, 4.000000, 4.000000, 4.000000, 4.000000, 4.000000, 4.000000
6.000000, 0.000000, 4171.794922, 4201.538574, 4188.205078, 4191.794922, 4179.487305, 4184.615234, 4191.281738, 4175.384277, 4175.384277, 4156.410156, 4178.461426, 4187.692383, 4193.333008, 4188.717773, 3387.000000, 8250.000000, 8248.000000, 0.000000, 0.000000, 0.000000, 0.000000, 450.256378, 1545658522.539256, 4.000000, 4.000000, 4.000000, 4.000000, 4.000000, 4.000000, 4.000000, 4.000000, 4.000000, 4.000000, 4.000000, 4.000000, 4.000000, 4.000000, 4.000000, 4.000000
7.000000, 0.000000, 4176.922852, 4204.615234, 4189.230469, 4192.307617, 4181.538574, 4194.871582, 4206.153809, 4181.538574, 4169.743652, 4155.384277, 4176.410156, 4190.769043, 4214.871582, 4186.666504, 3204.000000, 8255.000000, 8247.000000, 0.000000, 0.000000, 0.000000, 0.000000, 457.948700, 1545658522.546949, 4.000000, 4.000000, 4.000000, 4.000000, 4.000000, 4.000000, 4.000000, 4.000000, 4.000000, 4.000000, 4.000000, 4.000000, 4.000000, 4.000000, 4.000000, 4.000000
8.000000, 0.000000, 4160.512695, 4182.563965, 4179.487305, 4179.487305, 4174.871582, 4200.512695, 4207.692383, 4189.230469, 4169.743652, 4151.281738, 4168.717773, 4180.000000, 4216.922852, 4174.358887, 3408.000000, 8255.000000, 8247.000000, 0.000000, 0.000000, 0.000000, 0.000000, 466.153839, 1545658522.555154, 4.000000, 4.000000, 4.000000, 4.000000, 4.000000, 4.000000, 4.000000, 4.000000, 4.000000, 4.000000, 4.000000, 4.000000, 4.000000, 4.000000, 4.000000, 4.000000
9.000000, 0.000000, 4150.256348, 4171.794922, 4173.846191, 4166.153809, 4167.179199, 4193.333008, 4201.538574, 4184.102539, 4176.922852, 4154.871582, 4163.076660, 4172.307617, 4214.871582, 4163.076660, 3217.000000, 8259.000000, 8250.000000, 0.000000, 0.000000, 0.000000, 0.000000, 473.846161, 1545658522.562846, 4.000000, 4.000000, 4.000000, 4.000000, 4.000000, 4.000000, 4.000000, 4.000000, 4.000000, 4.000000, 4.000000, 4.000000, 4.000000, 4.000000, 4.000000, 4.000000
10.000000, 0.000000, 4168.717773, 4197.436035, 4188.205078, 4177.436035, 4171.281738, 4186.666504, 4186.153809, 4170.769043, 4190.769043, 4171.281738, 4175.384277, 4189.743652, 4236.410156, 4176.410156, 3538.000000, 8259.000000, 8250.000000, 0.000000, 0.000000, 0.000000, 0.000000, 482.051300, 1545658522.571051, 4.000000, 4.000000, 4.000000, 4.000000, 4.000000, 4.000000, 4.000000, 4.000000, 4.000000, 4.000000, 4.000000, 4.000000, 4.000000, 4.000000, 4.000000, 4.000000
11.000000, 0.000000, 4170.769043, 4199.487305, 4190.769043, 4185.641113, 4174.871582, 4188.717773, 4184.615234, 4176.922852, 4189.743652, 4163.076660, 4178.461426, 4194.871582, 4238.461426, 4179.487305, 3258.000000, 8261.000000, 8247.000000, 0.000000, 0.000000, 0.000000, 0.000000, 489.743561, 1545658522.578744, 4.000000, 4.000000, 4.000000, 4.000000, 4.000000, 4.000000, 4.000000, 4.000000, 4.000000, 4.000000, 4.000000, 4.000000, 4.000000, 4.000000, 4.000000, 4.000000
12.000000, 0.000000, 4155.897461, 4182.563965, 4182.051270, 4181.025391, 4168.717773, 4188.205078, 4201.025391, 4189.743652, 4173.333008, 4140.000000, 4170.769043, 4182.563965, 4224.615234, 4167.179199, 3507.000000, 8261.000000, 8247.000000, 0.000000, 0.000000, 0.000000, 0.000000, 497.435883, 1545658522.586436, 4.000000, 4.000000, 4.000000, 4.000000, 4.000000, 4.000000, 4.000000, 4.000000, 4.000000, 4.000000, 4.000000, 4.000000, 4.000000, 4.000000, 4.000000, 4.000000
13.000000, 0.000000, 4164.615234, 4194.358887, 4188.717773, 4183.589844, 4165.641113, 4185.641113, 4202.563965, 4184.102539, 4167.179199, 4142.563965, 4175.897461, 4190.769043, 4235.384277, 4174.358887, 3142.000000, 8256.000000, 8229.000000, 0.000000, 0.000000, 0.000000, 0.000000, 505.641022, 1545658522.594641, 4.000000, 4.000000, 4.000000, 4.000000, 4.000000, 4.000000, 4.000000, 4.000000, 4.000000, 4.000000, 4.000000, 4.000000, 4.000000, 4.000000, 4.000000, 4.000000
14.000000, 0.000000, 4178.461426, 4204.615234, 4196.922852, 4185.127930, 4164.615234, 4180.000000, 4184.615234, 4169.743652, 4168.717773, 4154.358887, 4185.641113, 4203.589844, 4245.641113, 4185.127930, 3538.000000, 8256.000000, 8229.000000, 0.000000, 0.000000, 0.000000, 0.000000, 513.333344, 1545658522.602333, 4.000000, 4.000000, 4.000000, 4.000000, 4.000000, 4.000000, 4.000000, 4.000000, 4.000000, 4.000000, 4.000000, 4.000000, 4.000000, 4.000000, 4.000000, 4.000000
15.000000, 0.000000, 4178.974121, 4191.794922, 4194.871582, 4177.948730, 4156.410156, 4168.717773, 4169.743652, 4168.205078, 4170.256348, 4153.846191, 4188.717773, 4200.000000, 4240.000000, 4185.641113, 3258.000000, 8251.000000, 8223.000000, 0.000000, 0.000000, 0.000000, 0.000000, 521.538422, 1545658522.610538, 4.000000, 4.000000, 4.000000, 4.000000, 4.000000, 4.000000, 4.000000, 4.000000, 4.000000, 4.000000, 4.000000, 4.000000, 4.000000, 4.000000, 4.000000, 4.000000
16.000000, 0.000000, 4189.230469, 4194.871582, 4201.025391, 4183.076660, 4156.922852, 4171.794922, 4169.230469, 4174.358887, 4176.922852, 4159.487305, 4197.948730, 4206.666504, 4253.846191, 4197.436035, 0.000000, 8251.000000, 8223.000000, 0.000000, 0.000000, 0.000000, 0.000000, 529.230743, 1545658522.618231, 4.000000, 4.000000, 4.000000, 4.000000, 4.000000, 4.000000, 4.000000, 4.000000, 4.000000, 4.000000, 4.000000, 4.000000, 4.000000, 4.000000, 4.000000, 4.000000
17.000000, 0.000000, 4197.436035, 4209.230469, 4207.692383, 4191.794922, 4167.179199, 4187.692383, 4183.589844, 4185.641113, 4187.179199, 4171.281738, 4213.846191, 4220.512695, 4269.743652, 4206.666504, 0.000000, 8251.000000, 8243.000000, 0.000000, 0.000000, 0.000000, 0.000000, 536.923065, 1545658522.625923, 4.000000, 4.000000, 4.000000, 4.000000, 4.000000, 4.000000, 4.000000, 4.000000, 4.000000, 4.000000, 4.000000, 4.000000, 4.000000, 4.000000, 4.000000, 4.000000
18.000000, 0.000000, 4191.281738, 4202.563965, 4200.512695, 4190.256348, 4171.794922, 4190.769043, 4194.871582, 4187.692383, 4195.384277, 4174.358887, 4217.948730, 4215.897461, 4258.461426, 4195.384277, 0.000000, 8251.000000, 8243.000000, 0.000000, 0.000000, 0.000000, 0.000000, 545.128204, 1545658522.634128, 4.000000, 4.000000, 4.000000, 4.000000, 4.000000, 4.000000, 4.000000, 4.000000, 4.000000, 4.000000, 4.000000, 4.000000, 4.000000, 4.000000, 4.000000, 4.000000
19.000000, 0.000000, 4182.563965, 4188.717773, 4189.230469, 4183.076660, 4164.615234, 4182.563965, 4193.846191, 4181.025391, 4196.922852, 4168.717773, 4207.179199, 4202.563965, 4243.076660, 4182.563965, 0.000000, 8250.000000, 8315.000000, 0.000000, 0.000000, 0.000000, 0.000000, 552.820526, 1545658522.641821, 4.000000, 4.000000, 4.000000, 4.000000, 4.000000, 4.000000, 4.000000, 4.000000, 4.000000, 4.000000, 4.000000, 4.000000, 4.000000, 4.000000, 4.000000, 4.000000
20.000000, 0.000000, 4178.461426, 4184.615234, 4187.692383, 4172.307617, 4155.384277, 4180.512695, 4193.333008, 4191.281738, 4195.384277, 4165.641113, 4200.000000, 4203.076660, 4241.025391, 4182.563965, 0.000000, 8250.000000, 8315.000000, 0.000000, 0.000000, 0.000000, 0.000000, 561.025604, 1545658522.650026, 4.000000, 4.000000, 4.000000, 4.000000, 4.000000, 4.000000, 4.000000, 4.000000, 4.000000, 4.000000, 4.000000, 4.000000, 4.000000, 4.000000, 4.000000, 4.000000
21.000000, 0.000000, 4181.538574, 4183.076660, 4193.846191, 4164.615234, 4153.846191, 4175.384277, 4184.102539, 4203.076660, 4204.615234, 4178.974121, 4211.794922, 4216.410156, 4249.230469, 4187.692383, 0.000000, 8239.000000, 8267.000000, 0.000000, 0.000000, 0.000000, 0.000000, 568.717926, 1545658522.657718, 4.000000, 4.000000, 4.000000, 4.000000, 4.000000, 4.000000, 4.000000, 4.000000, 4.000000, 4.000000, 4.000000, 4.000000, 4.000000, 4.000000, 4.000000, 4.000000
22.000000, 0.000000, 4180.000000, 4170.769043, 4189.743652, 4160.000000, 4151.794922, 4169.230469, 4177.948730, 4194.358887, 4203.076660, 4173.846191, 4212.820313, 4212.307617, 4240.000000, 4180.512695, 0.000000, 8239.000000, 8267.000000, 0.000000, 0.000000, 0.000000, 0.000000, 576.410248, 1545658522.665410, 4.000000, 4.000000, 4.000000, 4.000000, 4.000000, 4.000000, 4.000000, 4.000000, 4.000000, 4.000000, 4.000000, 4.000000, 4.000000, 4.000000, 4.000000, 4.000000
23.000000, 0.000000, 4177.948730, 4168.205078, 4183.076660, 4161.538574, 4149.230469, 4174.871582, 4187.179199, 4180.000000, 4178.974121, 4146.666504, 4198.461426, 4198.974121, 4216.410156, 4168.717773, 0.000000, 8238.000000, 8203.000000, 0.000000, 0.000000, 0.000000, 0.000000, 584.615387, 1545658522.673615, 4.000000, 4.000000, 4.000000, 4.000000, 4.000000, 4.000000, 4.000000, 4.000000, 4.000000, 4.000000, 4.000000, 4.000000, 4.000000, 4.000000, 4.000000, 4.000000
24.000000, 0.000000, 4181.025391, 4181.538574, 4189.230469, 4173.333008, 4155.897461, 4183.589844, 4184.615234, 4185.641113, 4183.076660, 4146.153809, 4197.436035, 4203.589844, 4215.384277, 4169.743652, 0.000000, 8238.000000, 8203.000000, 0.000000, 0.000000, 0.000000, 0.000000, 592.307709, 1545658522.681308, 4.000000, 4.000000, 4.000000, 4.000000, 4.000000, 4.000000, 4.000000, 4.000000, 4.000000, 4.000000, 4.000000, 4.000000, 4.000000, 4.000000, 4.000000, 4.000000
25.000000, 0.000000, 4178.461426, 4178.461426, 4187.692383, 4171.794922, 4158.974121, 4181.538574, 4173.333008, 4191.281738, 4208.717773, 4162.051270, 4197.436035, 4204.102539, 4213.846191, 4168.205078, 0.000000, 8233.000000, 8247.000000, 0.000000, 0.000000, 0.000000, 0.000000, 600.512787, 1545658522.689513, 4.000000, 4.000000, 4.000000, 4.000000, 4.000000, 4.000000, 4.000000, 4.000000, 4.000000, 4.000000, 4.000000, 4.000000, 4.000000, 4.000000, 4.000000, 4.000000
26.000000, 0.000000, 4164.615234, 4159.487305, 4170.769043, 4153.846191, 4146.153809, 4166.153809, 4168.717773, 4167.179199, 4187.692383, 4148.205078, 4178.974121, 4185.641113, 4190.256348, 4150.256348, 0.000000, 8233.000000, 8247.000000, 0.000000, 0.000000, 0.000000, 0.000000, 608.205109, 1545658522.697205, 4.000000, 4.000000, 4.000000, 4.000000, 4.000000, 4.000000, 4.000000, 4.000000, 4.000000, 4.000000, 4.000000, 4.000000, 4.000000, 4.000000, 4.000000, 4.000000
27.000000, 0.000000, 4160.000000, 4157.948730, 4166.153809, 4150.256348, 4140.512695, 4158.974121, 4171.794922, 4148.717773, 4147.179199, 4118.974121, 4164.615234, 4177.436035, 4176.922852, 4140.512695, 0.000000, 8232.000000, 8234.000000, 0.000000, 0.000000, 0.000000, 0.000000, 615.897430, 1545658522.704897, 4.000000, 4.000000, 4.000000, 4.000000, 4.000000, 4.000000, 4.000000, 4.000000, 4.000000, 4.000000, 4.000000, 4.000000, 4.000000, 4.000000, 4.000000, 4.000000
28.000000, 0.000000, 4168.205078, 4168.205078, 4175.384277, 4161.538574, 4152.307617, 4167.179199, 4174.871582, 4169.743652, 4154.871582, 4121.538574, 4171.281738, 4188.717773, 4184.102539, 4148.205078, 0.000000, 8232.000000, 8234.000000, 0.000000, 0.000000, 0.000000, 0.000000, 624.102570, 1545658522.713103, 4.000000, 4.000000, 4.000000, 4.000000, 4.000000, 4.000000, 4.000000, 4.000000, 4.000000, 4.000000, 4.000000, 4.000000, 4.000000, 4.000000, 4.000000, 4.000000
29.000000, 0.000000, 4171.281738, 4173.333008, 4177.948730, 4167.692383, 4158.974121, 4172.820313, 4172.307617, 4194.358887, 4184.615234, 4149.743652, 4187.179199, 4200.000000, 4191.281738, 4157.436035, 0.000000, 8231.000000, 8234.000000, 0.000000, 0.000000, 0.000000, 0.000000, 631.794830, 1545658522.720795, 4.000000, 4.000000, 4.000000, 4.000000, 4.000000, 4.000000, 4.000000, 4.000000, 4.000000, 4.000000, 4.000000, 4.000000, 4.000000, 4.000000, 4.000000, 4.000000
30.000000, 0.000000, 4169.743652, 4173.333008, 4173.846191, 4169.230469, 4154.358887, 4171.281738, 4175.384277, 4182.563965, 4181.538574, 4157.436035, 4192.820313, 4200.512695, 4190.256348, 4158.461426, 0.000000, 8231.000000, 8234.000000, 0.000000, 0.000000, 0.000000, 0.000000, 639.999969, 1545658522.729000, 4.000000, 4.000000, 4.000000, 4.000000, 4.000000, 4.000000, 4.000000, 4.000000, 4.000000, 4.000000, 4.000000, 4.000000, 4.000000, 4.000000, 4.000000, 4.000000
31.000000, 0.000000, 4168.717773, 4170.256348, 4172.307617, 4166.153809, 4150.256348, 4169.743652, 4180.000000, 4160.000000, 4161.538574, 4137.948730, 4182.051270, 4194.358887, 4181.538574, 4150.256348, 0.000000, 8234.000000, 8230.000000, 0.000000, 0.000000, 0.000000, 0.000000, 647.692291, 1545658522.736692, 4.000000, 4.000000, 4.000000, 4.000000, 4.000000, 4.000000, 4.000000, 4.000000, 4.000000, 4.000000, 4.000000, 4.000000, 4.000000, 4.000000, 4.000000, 4.000000
32.000000, 0.000000, 4169.230469, 4169.230469, 4173.846191, 4157.948730, 4148.205078, 4164.102539, 4166.153809, 4155.384277, 4163.076660, 4133.846191, 4177.948730, 4188.717773, 4172.820313, 4145.127930, 0.000000, 8234.000000, 8230.000000, 0.000000, 0.000000, 0.000000, 0.000000, 655.384613, 1545658522.744385, 4.000000, 4.000000, 4.000000, 4.000000, 4.000000, 4.000000, 4.000000, 4.000000, 4.000000, 4.000000, 4.000000, 4.000000, 4.000000, 4.000000, 4.000000, 4.000000
33.000000, 0.000000, 4166.666504, 4161.025391, 4169.230469, 4150.769043, 4137.948730, 4152.307617, 4145.127930, 4161.025391, 4170.769043, 4141.025391, 4181.025391, 4185.127930, 4166.153809, 4146.666504, 0.000000, 8235.000000, 8237.000000, 0.000000, 0.000000, 0.000000, 0.000000, 663.589752, 1545658522.752590, 4.000000, 4.000000, 4.000000, 4.000000, 4.000000, 4.000000, 4.000000, 4.000000, 4.000000, 4.000000, 4.000000, 4.000000, 4.000000, 4.000000, 4.000000, 4.000000
34.000000, 0.000000, 4169.230469, 4156.410156, 4173.333008, 4157.436035, 4135.897461, 4153.846191, 4152.307617, 4169.230469, 4172.820313, 4140.512695, 4185.127930, 4191.281738, 4167.179199, 4151.281738, 0.000000, 8235.000000, 8237.000000, 0.000000, 0.000000, 0.000000, 0.000000, 671.282013, 1545658522.760282, 4.000000, 4.000000, 4.000000, 4.000000, 4.000000, 4.000000, 4.000000, 4.000000, 4.000000, 4.000000, 4.000000, 4.000000, 4.000000, 4.000000, 4.000000, 4.000000
35.000000, 0.000000, 4175.897461, 4168.717773, 4185.127930, 4166.666504, 4150.256348, 4163.589844, 4166.666504, 4164.615234, 4174.358887, 4144.615234, 4189.743652, 4202.563965, 4176.922852, 4157.436035, 0.000000, 8236.000000, 8220.000000, 0.000000, 0.000000, 0.000000, 0.000000, 679.487152, 1545658522.768487, 4.000000, 4.000000, 4.000000, 4.000000, 4.000000, 4.000000, 4.000000, 4.000000, 4.000000, 4.000000, 4.000000, 4.000000, 4.000000, 4.000000, 4.000000, 4.000000
36.000000, 0.000000, 4171.794922, 4170.256348, 4177.948730, 4157.948730, 4148.717773, 4157.948730, 4160.512695, 4151.794922, 4160.512695, 4134.358887, 4182.051270, 4193.846191, 4168.205078, 4148.205078, 0.000000, 8236.000000, 8220.000000, 0.000000, 0.000000, 0.000000, 0.000000, 687.179496, 1545658522.776180, 4.000000, 4.000000, 4.000000, 4.000000, 4.000000, 4.000000, 4.000000, 4.000000, 4.000000, 4.000000, 4.000000, 4.000000, 4.000000, 4.000000, 4.000000, 4.000000
37.000000, 0.000000, 4166.666504, 4162.051270, 4166.666504, 4153.846191, 4136.410156, 4151.281738, 4155.384277, 4151.281738, 4147.179199, 4122.051270, 4173.333008, 4182.051270, 4157.948730, 4137.948730, 0.000000, 8234.000000, 8214.000000, 0.000000, 0.000000, 0.000000, 0.000000, 694.871803, 1545658522.783872, 4.000000, 4.000000, 4.000000, 4.000000, 4.000000, 4.000000, 4.000000, 4.000000, 4.000000, 4.000000, 4.000000, 4.000000, 4.000000, 4.000000, 4.000000, 4.000000
38.000000, 0.000000, 4171.281738, 4170.769043, 4174.358887, 4167.179199, 4145.127930, 4161.025391, 4150.256348, 4155.384277, 4162.563965, 4138.974121, 4181.538574, 4191.281738, 4172.307617, 4148.717773, 0.000000, 8234.000000, 8214.000000, 0.000000, 0.000000, 0.000000, 0.000000, 703.076931, 1545658522.792077, 4.000000, 4.000000, 4.000000, 4.000000, 4.000000, 4.000000, 4.000000, 4.000000, 4.000000, 4.000000, 4.000000, 4.000000, 4.000000, 4.000000, 4.000000, 4.000000
39.000000, 0.000000, 4172.307617, 4178.461426, 4177.436035, 4174.358887, 4157.948730, 4170.256348, 4148.205078, 4155.897461, 4171.794922, 4150.256348, 4190.769043, 4194.358887, 4181.538574, 4153.846191, 0.000000, 8232.000000, 8217.000000, 0.000000, 0.000000, 0.000000, 0.000000, 710.769239, 1545658522.799769, 4.000000, 4.000000, 4.000000, 4.000000, 4.000000, 4.000000, 4.000000, 4.000000, 4.000000, 4.000000, 4.000000, 4.000000, 4.000000, 4.000000, 4.000000, 4.000000
40.000000, 0.000000, 4165.127930, 4168.205078, 4165.641113, 4166.153809, 4154.358887, 4170.769043, 4167.179199, 4154.358887, 4155.384277, 4135.897461, 4186.153809, 4182.051270, 4174.871582, 4137.436035, 0.000000, 8232.000000, 8217.000000, 0.000000, 0.000000, 0.000000, 0.000000, 718.974365, 1545658522.807974, 4.000000, 4.000000, 4.000000, 4.000000, 4.000000, 4.000000, 4.000000, 4.000000, 4.000000, 4.000000, 4.000000, 4.000000, 4.000000, 4.000000, 4.000000, 4.000000
41.000000, 0.000000, 4164.102539, 4169.230469, 4166.153809, 4165.641113, 4155.897461, 4171.281738, 4186.666504, 4153.333008, 4152.307617, 4131.281738, 4182.051270, 4181.538574, 4174.871582, 4135.897461, 0.000000, 8238.000000, 8214.000000, 0.000000, 0.000000, 0.000000, 0.000000, 726.666676, 1545658522.815667, 4.000000, 4.000000, 4.000000, 4.000000, 4.000000, 4.000000, 4.000000, 4.000000, 4.000000, 4.000000, 4.000000, 4.000000, 4.000000, 4.000000, 4.000000, 4.000000
42.000000, 0.000000, 4171.281738, 4187.179199, 4173.846191, 4171.281738, 4163.076660, 4176.410156, 4176.410156, 4155.897461, 4168.205078, 4145.127930, 4191.794922, 4188.205078, 4190.256348, 4153.333008, 0.000000, 8238.000000, 8214.000000, 0.000000, 0.000000, 0.000000, 0.000000, 734.358982, 1545658522.823359, 4.000000, 4.000000, 4.000000, 4.000000, 4.000000, 4.000000, 4.000000, 4.000000, 4.000000, 4.000000, 4.000000, 4.000000, 4.000000, 4.000000, 4.000000, 4.000000
43.000000, 0.000000, 4168.717773, 4183.589844, 4165.641113, 4163.076660, 4156.410156, 4173.846191, 4160.000000, 4152.820313, 4170.769043, 4154.358887, 4200.000000, 4186.666504, 4203.589844, 4154.358887, 0.000000, 8244.000000, 8226.000000, 0.000000, 0.000000, 0.000000, 0.000000, 742.564110, 1545658522.831564, 4.000000, 4.000000, 4.000000, 4.000000, 4.000000, 4.000000, 4.000000, 4.000000, 4.000000, 4.000000, 4.000000, 4.000000, 4.000000, 4.000000, 4.000000, 4.000000
44.000000, 0.000000, 4158.974121, 4161.538574, 4152.820313, 4148.205078, 4146.666504, 4163.589844, 4168.205078, 4152.307617, 4166.153809, 4149.230469, 4194.358887, 4184.102539, 4197.948730, 4142.563965, 0.000000, 8244.000000, 8226.000000, 0.000000, 0.000000, 0.000000, 0.000000, 750.256416, 1545658522.839256, 4.000000, 4.000000, 4.000000, 4.000000, 4.000000, 4.000000, 4.000000, 4.000000, 4.000000, 4.000000, 4.000000, 4.000000, 4.000000, 4.000000, 4.000000, 4.000000
45.000000, 0.000000, 4159.487305, 4153.846191, 4154.358887, 4146.666504, 4145.127930, 4161.538574, 4176.410156, 4162.563965, 4169.230469, 4139.487305, 4183.589844, 4182.563965, 4184.615234, 4135.897461, 0.000000, 8253.000000, 8229.000000, 0.000000, 0.000000, 0.000000, 0.000000, 758.461548, 1545658522.847461, 4.000000, 4.000000, 4.000000, 4.000000, 4.000000, 4.000000, 4.000000, 4.000000, 4.000000, 4.000000, 4.000000, 4.000000, 4.000000, 4.000000, 4.000000, 4.000000
46.000000, 0.000000, 4168.205078, 4164.102539, 4164.615234, 4161.538574, 4151.794922, 4168.717773, 4169.743652, 4158.461426, 4169.743652, 4140.512695, 4181.025391, 4185.127930, 4188.205078, 4136.922852, 0.000000, 8253.000000, 8229.000000, 0.000000, 0.000000, 0.000000, 0.000000, 766.153854, 1545658522.855154, 4.000000, 4.000000, 4.000000, 4.000000, 4.000000, 4.000000, 4.000000, 4.000000, 4.000000, 4.000000, 4.000000, 4.000000, 4.000000, 4.000000, 4.000000, 4.000000
47.000000, 0.000000, 4181.538574, 4180.512695, 4180.000000, 4178.974121, 4165.641113, 4171.281738, 4163.589844, 4155.384277, 4176.410156, 4154.871582, 4197.436035, 4199.487305, 4203.589844, 4149.743652, 0.000000, 8254.000000, 8222.000000, 0.000000, 0.000000, 0.000000, 0.000000, 773.846161, 1545658522.862846, 4.000000, 4.000000, 4.000000, 4.000000, 4.000000, 4.000000, 4.000000, 4.000000, 4.000000, 4.000000, 4.000000, 4.000000, 4.000000, 4.000000, 4.000000, 4.000000
48.000000, 0.000000, 4197.436035, 4193.333008, 4194.871582, 4188.205078, 4171.794922, 4175.897461, 4171.794922, 4178.974121, 4194.358887, 4167.179199, 4219.487305, 4216.922852, 4211.794922, 4169.230469, 0.000000, 8254.000000, 8222.000000, 0.000000, 0.000000, 0.000000, 0.000000, 782.051285, 1545658522.871051, 4.000000, 4.000000, 4.000000, 4.000000, 4.000000, 4.000000, 4.000000, 4.000000, 4.000000, 4.000000, 4.000000, 4.000000, 4.000000, 4.000000, 4.000000, 4.000000
49.000000, 0.000000, 4200.512695, 4193.846191, 4194.358887, 4184.615234, 4169.743652, 4186.153809, 4182.051270, 4185.641113, 4199.487305, 4170.769043, 4220.512695, 4216.922852, 4210.256348, 4172.307617, 0.000000, 8249.000000, 8220.000000, 0.000000, 0.000000, 0.000000, 0.000000, 789.743599, 1545658522.878744, 4.000000, 4.000000, 4.000000, 4.000000, 4.000000, 4.000000, 4.000000, 4.000000, 4.000000, 4.000000, 4.000000, 4.000000, 4.000000, 4.000000, 4.000000, 4.000000
50.000000, 0.000000, 4187.692383, 4184.102539, 4182.563965, 4175.384277, 4168.205078, 4186.153809, 4182.563965, 4165.641113, 4182.051270, 4155.897461, 4200.512695, 4203.589844, 4195.384277, 4155.897461, 0.000000, 8249.000000, 8220.000000, 0.000000, 0.000000, 0.000000, 0.000000, 797.948723, 1545658522.886949, 4.000000, 4.000000, 4.000000, 4.000000, 4.000000, 4.000000, 4.000000, 4.000000, 4.000000, 4.000000, 4.000000, 4.000000, 4.000000, 4.000000, 4.000000, 4.000000
51.000000, 0.000000, 4183.589844, 4182.563965, 4184.615234, 4177.948730, 4172.307617, 4185.641113, 4181.538574, 4168.717773, 4168.717773, 4138.461426, 4193.846191, 4199.487305, 4182.563965, 4151.281738, 0.000000, 8246.000000, 8231.000000, 0.000000, 0.000000, 0.000000, 0.000000, 805.641029, 1545658522.894641, 4.000000, 4.000000, 4.000000, 4.000000, 4.000000, 4.000000, 4.000000, 4.000000, 4.000000, 4.000000, 4.000000, 4.000000, 4.000000, 4.000000, 4.000000, 4.000000
52.000000, 0.000000, 4193.846191, 4184.102539, 4192.307617, 4187.692383, 4180.512695, 4190.256348, 4187.179199, 4178.461426, 4175.384277, 4143.076660, 4202.563965, 4204.615234, 4185.641113, 4157.948730, 0.000000, 8246.000000, 8231.000000, 0.000000, 0.000000, 0.000000, 0.000000, 813.846161, 1545658522.902846, 4.000000, 4.000000, 4.000000, 4.000000, 4.000000, 4.000000, 4.000000, 4.000000, 4.000000, 4.000000, 4.000000, 4.000000, 4.000000, 4.000000, 4.000000, 4.000000
53.000000, 0.000000, 4195.384277, 4183.076660, 4187.692383, 4186.666504, 4180.512695, 4186.153809, 4192.307617, 4169.743652, 4184.615234, 4151.794922, 4203.076660, 4202.051270, 4184.615234, 4154.871582, 0.000000, 8247.000000, 8235.000000, 0.000000, 0.000000, 0.000000, 0.000000, 821.538467, 1545658522.910539, 4.000000, 4.000000, 4.000000, 4.000000, 4.000000, 4.000000, 4.000000, 4.000000, 4.000000, 4.000000, 4.000000, 4.000000, 4.000000, 4.000000, 4.000000, 4.000000
54.000000, 0.000000, 4192.820313, 4196.410156, 4188.717773, 4184.615234, 4182.563965, 4192.820313, 4196.410156, 4171.794922, 4191.281738, 4157.948730, 4206.666504, 4204.102539, 4185.641113, 4155.897461, 0.000000, 8247.000000, 8235.000000, 0.000000, 0.000000, 0.000000, 0.000000, 829.230774, 1545658522.918231, 4.000000, 4.000000, 4.000000, 4.000000, 4.000000, 4.000000, 4.000000, 4.000000, 4.000000, 4.000000, 4.000000, 4.000000, 4.000000, 4.000000, 4.000000, 4.000000
55.000000, 0.000000, 4187.179199, 4201.025391, 4187.179199, 4187.179199, 4185.127930, 4204.102539, 4204.102539, 4178.974121, 4184.102539, 4155.897461, 4201.538574, 4202.051270, 4183.076660, 4154.871582, 0.000000, 8246.000000, 8247.000000, 0.000000, 0.000000, 0.000000, 0.000000, 837.435898, 1545658522.926436, 4.000000, 4.000000, 4.000000, 4.000000, 4.000000, 4.000000, 4.000000, 4.000000, 4.000000, 4.000000, 4.000000, 4.000000, 4.000000, 4.000000, 4.000000, 4.000000
56.000000, 0.000000, 4177.436035, 4181.538574, 4171.281738, 4181.025391, 4172.820313, 4190.769043, 4200.512695, 4172.820313, 4171.281738, 4145.127930, 4183.076660, 4184.615234, 4167.179199, 4137.948730, 0.000000, 8246.000000, 8247.000000, 0.000000, 0.000000, 0.000000, 0.000000, 845.128204, 1545658522.934128, 4.000000, 4.000000, 4.000000, 4.000000, 4.000000, 4.000000, 4.000000, 4.000000, 4.000000, 4.000000, 4.000000, 4.000000, 4.000000, 4.000000, 4.000000, 4.000000
57.000000, 0.000000, 4188.717773, 4183.076660, 4177.436035, 4180.512695, 4168.205078, 4175.384277, 4184.102539, 4173.333008, 4184.102539, 4153.333008, 4193.846191, 4189.743652, 4171.281738, 4142.563965, 0.000000, 8244.000000, 8241.000000, 0.000000, 0.000000, 0.000000, 0.000000, 853.333344, 1545658522.942333, 4.000000, 4.000000, 4.000000, 4.000000, 4.000000, 4.000000, 4.000000, 4.000000, 4.000000, 4.000000, 4.000000, 4.000000, 4.000000, 4.000000, 4.000000, 4.000000
58.000000, 0.000000, 4212.307617, 4210.769043, 4203.076660, 4196.410156, 4185.641113, 4187.179199, 4183.589844, 4178.461426, 4204.102539, 4173.333008, 4223.589844, 4214.358887, 4196.410156, 4170.769043, 0.000000, 8244.000000, 8241.000000, 0.000000, 0.000000, 0.000000, 0.000000, 861.025650, 1545658522.950026, 4.000000, 4.000000, 4.000000, 4.000000, 4.000000, 4.000000, 4.000000, 4.000000, 4.000000, 4.000000, 4.000000, 4.000000, 4.000000, 4.000000, 4.000000, 4.000000
59.000000, 0.000000, 4213.333008, 4218.974121, 4206.666504, 4205.127930, 4192.307617, 4202.051270, 4196.922852, 4176.410156, 4204.102539, 4177.948730, 4227.179199, 4211.794922, 4204.615234, 4174.871582, 0.000000, 8243.000000, 8238.000000, 0.000000, 0.000000, 0.000000, 0.000000, 868.717957, 1545658522.957718, 4.000000, 4.000000, 4.000000, 4.000000, 4.000000, 4.000000, 4.000000, 4.000000, 4.000000, 4.000000, 4.000000, 4.000000, 4.000000, 4.000000, 4.000000, 4.000000
60.000000, 0.000000, 4206.666504, 4211.794922, 4198.974121, 4199.487305, 4187.179199, 4200.000000, 4194.358887, 4173.333008, 4202.563965, 4173.846191, 4218.461426, 4203.076660, 4195.897461, 4166.666504, 0.000000, 8243.000000, 8238.000000, 0.000000, 0.000000, 0.000000, 0.000000, 876.923080, 1545658522.965923, 4.000000, 4.000000, 4.000000, 4.000000, 4.000000, 4.000000, 4.000000, 4.000000, 4.000000, 4.000000, 4.000000, 4.000000, 4.000000, 4.000000, 4.000000, 4.000000
61.000000, 0.000000, 4210.769043, 4215.384277, 4200.512695, 4199.487305, 4193.846191, 4197.436035, 4184.102539, 4168.205078, 4198.974121, 4169.230469, 4220.512695, 4210.256348, 4190.769043, 4168.717773, 0.000000, 8238.000000, 8235.000000, 0.000000, 0.000000, 0.000000, 0.000000, 884.615387, 1545658522.973615, 4.000000, 4.000000, 4.000000, 4.000000, 4.000000, 4.000000, 4.000000, 4.000000, 4.000000, 4.000000, 4.000000, 4.000000, 4.000000, 4.000000, 4.000000, 4.000000
62.000000, 0.000000, 4214.358887, 4222.563965, 4201.538574, 4211.281738, 4202.563965, 4205.641113, 4191.281738, 4170.769043, 4188.717773, 4160.512695, 4222.051270, 4212.307617, 4192.820313, 4167.179199, 0.000000, 8238.000000, 8235.000000, 0.000000, 0.000000, 0.000000, 0.000000, 892.820511, 1545658522.981821, 4.000000, 4.000000, 4.000000, 4.000000, 4.000000, 4.000000, 4.000000, 4.000000, 4.000000, 4.000000, 4.000000, 4.000000, 4.000000, 4.000000, 4.000000, 4.000000
63.000000, 0.000000, 4221.538574, 4233.333008, 4207.692383, 4225.641113, 4212.307617, 4225.641113, 4212.820313, 4196.410156, 4203.076660, 4172.307617, 4230.769043, 4213.846191, 4205.641113, 4175.897461, 0.000000, 8237.000000, 8248.000000, 0.000000, 0.000000, 0.000000, 0.000000, 900.512817, 1545658522.989513, 4.000000, 4.000000, 4.000000, 4.000000, 4.000000, 4.000000, 4.000000, 4.000000, 4.000000, 4.000000, 4.000000, 4.000000, 4.000000, 4.000000, 4.000000, 4.000000
64.000000, 0.000000, 4226.666504, 4235.897461, 4212.307617, 4222.051270, 4218.461426, 4236.922852, 4234.358887, 4215.384277, 4224.615234, 4191.794922, 4239.487305, 4221.538574, 4208.717773, 4184.615234, 3321.000000, 8237.000000, 8248.000000, 0.000000, 0.000000, 0.000000, 0.000000, 908.205124, 1545658522.997205, 4.000000, 4.000000, 4.000000, 4.000000, 4.000000, 4.000000, 4.000000, 4.000000, 4.000000, 4.000000, 4.000000, 4.000000, 4.000000, 4.000000, 4.000000, 4.000000
65.000000, 0.000000, 4217.436035, 4221.538574, 4202.563965, 4206.153809, 4207.692383, 4228.205078, 4234.358887, 4197.436035, 4220.000000, 4188.717773, 4232.820313, 4216.410156, 4198.461426, 4174.358887, 3502.000000, 8242.000000, 8251.000000, 0.000000, 0.000000, 0.000000, 0.000000, 916.410263, 1545658523.005410, 4.000000, 4.000000, 4.000000, 4.000000, 4.000000, 4.000000, 4.000000, 4.000000, 4.000000, 4.000000, 4.000000, 4.000000, 4.000000, 4.000000, 4.000000, 4.000000
66.000000, 0.000000, 4220.000000, 4217.436035, 4204.615234, 4206.153809, 4200.512695, 4218.974121, 4218.974121, 4188.717773, 4217.948730, 4188.717773, 4231.281738, 4217.436035, 4200.512695, 4177.948730, 3304.000000, 8242.000000, 8251.000000, 0.000000, 0.000000, 0.000000, 0.000000, 924.102570, 1545658523.013103, 4.000000, 4.000000, 4.000000, 4.000000, 4.000000, 4.000000, 4.000000, 4.000000, 4.000000, 4.000000, 4.000000, 4.000000, 4.000000, 4.000000, 4.000000, 4.000000
67.000000, 0.000000, 4223.076660, 4218.461426, 4208.717773, 4210.769043, 4198.974121, 4214.871582, 4220.512695, 4203.076660, 4213.333008, 4184.615234, 4227.692383, 4217.948730, 4193.333008, 4183.589844, 3569.000000, 8247.000000, 8250.000000, 0.000000, 0.000000, 0.000000, 0.000000, 932.307693, 1545658523.021308, 4.000000, 4.000000, 4.000000, 4.000000, 4.000000, 4.000000, 4.000000, 4.000000, 4.000000, 4.000000, 4.000000, 4.000000, 4.000000, 4.000000, 4.000000, 4.000000
68.000000, 0.000000, 4212.307617, 4210.256348, 4199.487305, 4201.538574, 4191.794922, 4209.230469, 4221.025391, 4192.820313, 4194.871582, 4168.205078, 4215.897461, 4206.666504, 4177.948730, 4169.743652, 3359.000000, 8247.000000, 8250.000000, 0.000000, 0.000000, 0.000000, 0.000000, 940.000000, 1545658523.029000, 4.000000, 4.000000, 4.000000, 4.000000, 4.000000, 4.000000, 4.000000, 4.000000, 4.000000, 4.000000, 4.000000, 4.000000, 4.000000, 4.000000, 4.000000, 4.000000
69.000000, 0.000000, 4217.436035, 4219.487305, 4198.974121, 4203.589844, 4191.794922, 4203.076660, 4199.487305, 4170.256348, 4190.256348, 4166.666504, 4221.538574, 4209.743652, 4186.666504, 4166.666504, 3463.000000, 8257.000000, 8250.000000, 0.000000, 0.000000, 0.000000, 0.000000, 947.692322, 1545658523.036692, 4.000000, 4.000000, 4.000000, 4.000000, 4.000000, 4.000000, 4.000000, 4.000000, 4.000000, 4.000000, 4.000000, 4.000000, 4.000000, 4.000000, 4.000000, 4.000000
70.000000, 0.000000, 4217.436035, 4219.487305, 4194.358887, 4200.000000, 4185.641113, 4188.205078, 4178.974121, 4166.666504, 4190.256348, 4172.820313, 4218.974121, 4205.641113, 4189.743652, 4165.127930, 3399.000000, 8257.000000, 8250.000000, 0.000000, 0.000000, 0.000000, 0.000000, 955.897430, 1545658523.044898, 4.000000, 4.000000, 4.000000, 4.000000, 4.000000, 4.000000, 4.000000, 4.000000, 4.000000, 4.000000, 4.000000, 4.000000, 4.000000, 4.000000, 4.000000, 4.000000
71.000000, 0.000000, 4203.589844, 4192.307617, 4184.615234, 4178.974121, 4171.794922, 4180.512695, 4174.871582, 4172.820313, 4189.230469, 4173.846191, 4207.179199, 4191.281738, 4173.846191, 4154.358887, 3191.000000, 8253.000000, 8243.000000, 0.000000, 0.000000, 0.000000, 0.000000, 963.589752, 1545658523.052590, 4.000000, 4.000000, 4.000000, 4.000000, 4.000000, 4.000000, 4.000000, 4.000000, 4.000000, 4.000000, 4.000000, 4.000000, 4.000000, 4.000000, 4.000000, 4.000000
72.000000, 0.000000, 4202.051270, 4184.102539, 4184.102539, 4173.333008, 4169.743652, 4187.179199, 4167.179199, 4167.179199, 4183.589844, 4162.051270, 4204.102539, 4190.769043, 4163.589844, 4155.384277, 3415.000000, 8253.000000, 8243.000000, 0.000000, 0.000000, 0.000000, 0.000000, 971.794861, 1545658523.060795, 4.000000, 4.000000, 4.000000, 4.000000, 4.000000, 4.000000, 4.000000, 4.000000, 4.000000, 4.000000, 4.000000, 4.000000, 4.000000, 4.000000, 4.000000, 4.000000
73.000000, 0.000000, 4169.743652, 4168.717773, 4152.307617, 4154.358887, 4138.974121, 4154.358887, 4130.256348, 4130.256348, 4137.948730, 4112.307617, 4164.615234, 4163.076660, 4121.538574, 4124.615234, 3226.000000, 8261.000000, 8243.000000, 0.000000, 0.000000, 0.000000, 0.000000, 979.487183, 1545658523.068487, 4.000000, 4.000000, 4.000000, 4.000000, 4.000000, 4.000000, 4.000000, 4.000000, 4.000000, 4.000000, 4.000000, 4.000000, 4.000000, 4.000000, 4.000000, 4.000000
74.000000, 0.000000, 4104.102539, 4114.358887, 4089.230713, 4097.436035, 4081.025635, 4086.666504, 4083.076904, 4079.487061, 4075.384521, 4055.384521, 4091.281982, 4098.461426, 4045.128174, 4056.923096, 3553.000000, 8261.000000, 8243.000000, 0.000000, 0.000000, 0.000000, 0.000000, 987.179474, 1545658523.076180, 4.000000, 4.000000, 4.000000, 4.000000, 4.000000, 4.000000, 4.000000, 4.000000, 4.000000, 4.000000, 4.000000, 4.000000, 4.000000, 4.000000, 4.000000, 4.000000
75.000000, 0.000000, 4089.230713, 4097.948730, 4073.845947, 4077.948730, 4077.435791, 4078.974365, 4082.563965, 4073.845947, 4066.153809, 4051.794678, 4069.230713, 4077.948730, 4015.384521, 4036.923096, 3274.000000, 8262.000000, 8248.000000, 0.000000, 0.000000, 0.000000, 0.000000, 995.384613, 1545658523.084384, 4.000000, 4.000000, 4.000000, 4.000000, 4.000000, 4.000000, 4.000000, 4.000000, 4.000000, 4.000000, 4.000000, 4.000000, 4.000000, 4.000000, 4.000000, 4.000000
76.000000, 0.000000, 4111.281738, 4124.102539, 4094.358887, 4106.153809, 4110.256348, 4111.281738, 4108.717773, 4093.845947, 4087.179443, 4069.230713, 4085.128174, 4095.384521, 4024.615234, 4050.769043, 3517.000000, 8262.000000, 8248.000000, 0.000000, 0.000000, 0.000000, 1.000000, 3.076935, 1545658523.092077, 4.000000, 4.000000, 4.000000, 4.000000, 4.000000, 4.000000, 4.000000, 4.000000, 4.000000, 4.000000, 4.000000, 4.000000, 4.000000, 4.000000, 4.000000, 4.000000
77.000000, 0.000000, 4094.358887, 4117.436035, 4080.512695, 4098.974121, 4105.127930, 4106.153809, 4106.666504, 4088.205078, 4080.512695, 4061.538330, 4068.205078, 4080.512695, 4003.589600, 4033.845947, 3159.000000, 8263.000000, 8241.000000, 0.000000, 0.000000, 0.000000, 1.000000, 11.282043, 1545658523.100282, 4.000000, 4.000000, 4.000000, 4.000000, 4.000000, 4.000000, 4.000000, 4.000000, 4.000000, 4.000000, 4.000000, 4.000000, 4.000000, 4.000000, 4.000000, 4.000000
78.000000, 0.000000, 4068.205078, 4092.820313, 4054.358887, 4069.230713, 4086.666504, 4090.769043, 4099.487305, 4085.128174, 4067.179443, 4045.640869, 4044.615234, 4054.871582, 3975.897217, 4014.358887, 3553.000000, 8263.000000, 8241.000000, 0.000000, 0.000000, 0.000000, 1.000000, 18.974365, 1545658523.107974, 4.000000, 4.000000, 4.000000, 4.000000, 4.000000, 4.000000, 4.000000, 4.000000, 4.000000, 4.000000, 4.000000, 4.000000, 4.000000, 4.000000, 4.000000, 4.000000
79.000000, 0.000000, 4073.333252, 4086.153809, 4055.897217, 4068.205078, 4084.615234, 4088.205078, 4090.769043, 4081.538330, 4058.461426, 4032.307617, 4043.076904, 4053.333252, 3975.384521, 4013.333252, 3274.000000, 8262.000000, 8217.000000, 0.000000, 0.000000, 0.000000, 1.000000, 26.666656, 1545658523.115667, 4.000000, 4.000000, 4.000000, 4.000000, 4.000000, 4.000000, 4.000000, 4.000000, 4.000000, 4.000000, 4.000000, 4.000000, 4.000000, 4.000000, 4.000000, 4.000000
80.000000, 0.000000, 4089.230713, 4098.461426, 4073.333252, 4083.589600, 4091.794678, 4086.666504, 4067.179443, 4062.563965, 4056.410156, 4037.435791, 4052.820313, 4067.179443, 3986.153809, 4022.563965, 3517.000000, 8262.000000, 8217.000000, 0.000000, 0.000000, 0.000000, 1.000000, 34.871796, 1545658523.123872, 4.000000, 4.000000, 4.000000, 4.000000, 4.000000, 4.000000, 4.000000, 4.000000, 4.000000, 4.000000, 4.000000, 4.000000, 4.000000, 4.000000, 4.000000, 4.000000
81.000000, 0.000000, 4096.922852, 4117.436035, 4083.076904, 4093.845947, 4104.102539, 4092.307617, 4064.615234, 4064.102539, 4066.666504, 4055.384521, 4062.051270, 4077.435791, 3991.794678, 4034.871582, 3159.000000, 8266.000000, 8219.000000, 0.000000, 0.000000, 0.000000, 1.000000, 42.564117, 1545658523.131564, 4.000000, 4.000000, 4.000000, 4.000000, 4.000000, 4.000000, 4.000000, 4.000000, 4.000000, 4.000000, 4.000000, 4.000000, 4.000000, 4.000000, 4.000000, 4.000000
82.000000, 0.000000, 4089.743408, 4111.281738, 4077.948730, 4090.769043, 4098.974121, 4089.230713, 4076.923096, 4076.410156, 4062.563965, 4046.666504, 4053.845947, 4069.230713, 3981.538330, 4031.281982, 3553.000000, 8266.000000, 8219.000000, 0.000000, 0.000000, 0.000000, 1.000000, 50.769226, 1545658523.139769, 4.000000, 4.000000, 4.000000, 4.000000, 4.000000, 4.000000, 4.000000, 4.000000, 4.000000, 4.000000, 4.000000, 4.000000, 4.000000, 4.000000, 4.000000, 4.000000
83.000000, 0.000000, 4080.512695, 4093.333252, 4069.743408, 4080.000000, 4085.640869, 4076.410156, 4074.358887, 4069.743408, 4051.794678, 4030.769043, 4043.076904, 4056.410156, 3969.743408, 4018.461426, 3274.000000, 8262.000000, 8222.000000, 0.000000, 0.000000, 0.000000, 1.000000, 58.461548, 1545658523.147461, 4.000000, 4.000000, 4.000000, 4.000000, 4.000000, 4.000000, 4.000000, 4.000000, 4.000000, 4.000000, 4.000000, 4.000000, 4.000000, 4.000000, 4.000000, 4.000000
84.000000, 0.000000, 4085.128174, 4107.179199, 4072.820313, 4081.538330, 4093.845947, 4085.128174, 4085.640869, 4074.358887, 4068.205078, 4051.281982, 4052.307617, 4061.025635, 3981.538330, 4023.076904, 3517.000000, 8262.000000, 8222.000000, 0.000000, 0.000000, 0.000000, 1.000000, 66.153839, 1545658523.155154, 4.000000, 4.000000, 4.000000, 4.000000, 4.000000, 4.000000, 4.000000, 4.000000, 4.000000, 4.000000, 4.000000, 4.000000, 4.000000, 4.000000, 4.000000, 4.000000
85.000000, 0.000000, 4100.000000, 4129.230469, 4086.666504, 4101.025391, 4112.307617, 4111.281738, 4117.436035, 4107.692383, 4101.538574, 4084.615234, 4073.845947, 4077.435791, 4005.640869, 4039.487061, 3159.000000, 8260.000000, 8219.000000, 0.000000, 0.000000, 0.000000, 1.000000, 74.358978, 1545658523.163359, 4.000000, 4.000000, 4.000000, 4.000000, 4.000000, 4.000000, 4.000000, 4.000000, 4.000000, 4.000000, 4.000000, 4.000000, 4.000000, 4.000000, 4.000000, 4.000000
86.000000, 0.000000, 4102.563965, 4120.000000, 4088.205078, 4106.153809, 4109.743652, 4114.871582, 4121.025391, 4114.871582, 4099.487305, 4079.487061, 4072.307617, 4077.435791, 4002.051270, 4039.487061, 3553.000000, 8260.000000, 8219.000000, 0.000000, 0.000000, 0.000000, 1.000000, 82.051270, 1545658523.171051, 4.000000, 4.000000, 4.000000, 4.000000, 4.000000, 4.000000, 4.000000, 4.000000, 4.000000, 4.000000, 4.000000, 4.000000, 4.000000, 4.000000, 4.000000, 4.000000
87.000000, 0.000000, 4090.256348, 4099.487305, 4075.897217, 4090.256348, 4094.871582, 4098.461426, 4099.487305, 4084.102539, 4071.281982, 4051.794678, 4052.307617, 4063.076904, 3982.563965, 4026.153809, 3274.000000, 8261.000000, 8217.000000, 0.000000, 0.000000, 0.000000, 1.000000, 90.256409, 1545658523.179256, 4.000000, 4.000000, 4.000000, 4.000000, 4.000000, 4.000000, 4.000000, 4.000000, 4.000000, 4.000000, 4.000000, 4.000000, 4.000000, 4.000000, 4.000000, 4.000000
88.000000, 0.000000, 4077.435791, 4091.281982, 4068.717773, 4075.897217, 4087.179443, 4092.307617, 4088.205078, 4079.487061, 4069.743408, 4050.769043, 4046.153809, 4054.871582, 3977.948730, 4016.923096, 3517.000000, 8261.000000, 8217.000000, 0.000000, 0.000000, 0.000000, 1.000000, 97.948730, 1545658523.186949, 4.000000, 4.000000, 4.000000, 4.000000, 4.000000, 4.000000, 4.000000, 4.000000, 4.000000, 4.000000, 4.000000, 4.000000, 4.000000, 4.000000, 4.000000, 4.000000
89.000000, 0.000000, 4070.256348, 4089.230713, 4066.153809, 4072.307617, 4087.179443, 4092.820313, 4086.666504, 4089.230713, 4079.487061, 4062.563965, 4052.820313, 4051.794678, 3981.538330, 4015.897217, 3159.000000, 8249.000000, 8216.000000, 0.000000, 0.000000, 0.000000, 1.000000, 106.153839, 1545658523.195154, 4.000000, 4.000000, 4.000000, 4.000000, 4.000000, 4.000000, 4.000000, 4.000000, 4.000000, 4.000000, 4.000000, 4.000000, 4.000000, 4.000000, 4.000000, 4.000000
90.000000, 0.000000, 4078.461426, 4095.384521, 4068.717773, 4081.025635, 4096.410156, 4095.384521, 4091.794678, 4071.794678, 4071.281982, 4058.461426, 4058.461426, 4054.358887, 3989.743408, 4023.589600, 3553.000000, 8249.000000, 8216.000000, 0.000000, 0.000000, 0.000000, 1.000000, 113.846161, 1545658523.202846, 4.000000, 4.000000, 4.000000, 4.000000, 4.000000, 4.000000, 4.000000, 4.000000, 4.000000, 4.000000, 4.000000, 4.000000, 4.000000, 4.000000, 4.000000, 4.000000
91.000000, 0.000000, 4099.487305, 4114.358887, 4084.615234, 4100.512695, 4108.717773, 4109.230469, 4103.076660, 4075.384521, 4081.538330, 4063.589600, 4075.897217, 4070.769043, 4011.281982, 4040.000000, 3274.000000, 8241.000000, 8215.000000, 0.000000, 0.000000, 0.000000, 1.000000, 121.538452, 1545658523.210539, 4.000000, 4.000000, 4.000000, 4.000000, 4.000000, 4.000000, 4.000000, 4.000000, 4.000000, 4.000000, 4.000000, 4.000000, 4.000000, 4.000000, 4.000000, 4.000000
92.000000, 0.000000, 4109.230469, 4126.666504, 4096.410156, 4109.743652, 4112.820313, 4119.487305, 4108.205078, 4107.179199, 4110.769043, 4082.051270, 4094.871582, 4082.563965, 4030.256348, 4050.769043, 3517.000000, 8241.000000, 8215.000000, 0.000000, 0.000000, 0.000000, 1.000000, 129.743591, 1545658523.218744, 4.000000, 4.000000, 4.000000, 4.000000, 4.000000, 4.000000, 4.000000, 4.000000, 4.000000, 4.000000, 4.000000, 4.000000, 4.000000, 4.000000, 4.000000, 4.000000
93.000000, 0.000000, 4100.000000, 4119.487305, 4088.205078, 4107.692383, 4111.281738, 4114.358887, 4108.717773, 4100.512695, 4101.538574, 4077.948730, 4089.743408, 4076.923096, 4029.743408, 4046.153809, 3159.000000, 8233.000000, 8222.000000, 0.000000, 0.000000, 0.000000, 1.000000, 137.435883, 1545658523.226436, 4.000000, 4.000000, 4.000000, 4.000000, 4.000000, 4.000000, 4.000000, 4.000000, 4.000000, 4.000000, 4.000000, 4.000000, 4.000000, 4.000000, 4.000000, 4.000000
94.000000, 0.000000, 4091.794678, 4109.743652, 4081.538330, 4104.102539, 4104.615234, 4103.076660, 4106.153809, 4070.769043, 4069.230713, 4057.435791, 4073.845947, 4067.179443, 4028.717773, 4035.897217, 3553.000000, 8233.000000, 8222.000000, 0.000000, 0.000000, 0.000000, 1.000000, 145.641022, 1545658523.234641, 4.000000, 4.000000, 4.000000, 4.000000, 4.000000, 4.000000, 4.000000, 4.000000, 4.000000, 4.000000, 4.000000, 4.000000, 4.000000, 4.000000, 4.000000, 4.000000
95.000000, 0.000000, 4092.307617, 4111.281738, 4085.640869, 4097.436035, 4100.000000, 4094.871582, 4102.051270, 4073.845947, 4068.717773, 4054.358887, 4071.794678, 4065.640869, 4042.563965, 4034.358887, 3274.000000, 8230.000000, 8234.000000, 0.000000, 0.000000, 0.000000, 1.000000, 153.333344, 1545658523.242333, 4.000000, 4.000000, 4.000000, 4.000000, 4.000000, 4.000000, 4.000000, 4.000000, 4.000000, 4.000000, 4.000000, 4.000000, 4.000000, 4.000000, 4.000000, 4.000000
96.000000, 0.000000, 4094.358887, 4117.948730, 4091.281982, 4096.410156, 4102.563965, 4093.845947, 4101.538574, 4083.589600, 4083.589600, 4067.179443, 4081.538330, 4074.358887, 4070.256348, 4042.563965, 3517.000000, 8230.000000, 8234.000000, 0.000000, 0.000000, 0.000000, 1.000000, 161.025635, 1545658523.250026, 4.000000, 4.000000, 4.000000, 4.000000, 4.000000, 4.000000, 4.000000, 4.000000, 4.000000, 4.000000, 4.000000, 4.000000, 4.000000, 4.000000, 4.000000, 4.000000
97.000000, 0.000000, 4092.820313, 4117.436035, 4093.845947, 4102.563965, 4108.717773, 4104.615234, 4111.281738, 4091.794678, 4095.384521, 4081.538330, 4087.692139, 4080.000000, 4098.461426, 4046.153809, 3159.000000, 8226.000000, 8241.000000, 0.000000, 0.000000, 0.000000, 1.000000, 169.230774, 1545658523.258231, 4.000000, 4.000000, 4.000000, 4.000000, 4.000000, 4.000000, 4.000000, 4.000000, 4.000000, 4.000000, 4.000000, 4.000000, 4.000000, 4.000000, 4.000000, 4.000000
98.000000, 0.000000, 4084.615234, 4108.717773, 4083.589600, 4096.922852, 4105.641113, 4114.358887, 4128.717773, 4111.794922, 4112.307617, 4089.743408, 4083.076904, 4068.717773, 4115.384277, 4037.948730, 3553.000000, 8226.000000, 8241.000000, 0.000000, 0.000000, 0.000000, 1.000000, 176.923065, 1545658523.265923, 4.000000, 4.000000, 4.000000, 4.000000, 4.000000, 4.000000, 4.000000, 4.000000, 4.000000, 4.000000, 4.000000, 4.000000, 4.000000, 4.000000, 4.000000, 4.000000
99.000000, 0.000000, 4077.435791, 4104.615234, 4076.410156, 4088.205078, 4102.051270, 4110.769043, 4120.512695, 4105.127930, 4107.179199, 4080.512695, 4073.333252, 4062.563965, 4127.692383, 4030.256348, 3274.000000, 8230.000000, 8243.000000, 0.000000, 0.000000, 0.000000, 1.000000, 185.128204, 1545658523.274128, 4.000000, 4.000000, 4.000000, 4.000000, 4.000000, 4.000000, 4.000000, 4.000000, 4.000000, 4.000000, 4.000000, 4.000000, 4.000000, 4.000000, 4.000000, 4.000000
100.000000, 0.000000, 4082.051270, 4108.717773, 4085.128174, 4094.358887, 4104.102539, 4105.127930, 4089.230713, 4074.358887, 4083.076904, 4063.076904, 4069.230713, 4072.307617, 4139.487305, 4030.256348, 3517.000000, 8230.000000, 8243.000000, 0.000000, 0.000000, 0.000000, 1.000000, 192.820496, 1545658523.281821, 4.000000, 4.000000, 4.000000, 4.000000, 4.000000, 4.000000, 4.000000, 4.000000, 4.000000, 4.000000, 4.000000, 4.000000, 4.000000, 4.000000, 4.000000, 4.000000
101.000000, 0.000000, 4087.179443, 4115.384277, 4090.769043, 4103.076660, 4105.641113, 4107.692383, 4084.615234, 4071.281982, 4081.538330, 4062.051270, 4069.230713, 4074.871582, 4145.641113, 4031.794678, 3159.000000, 8228.000000, 8245.000000, 0.000000, 0.000000, 0.000000, 1.000000, 200.512787, 1545658523.289513, 4.000000, 4.000000, 4.000000, 4.000000, 4.000000, 4.000000, 4.000000, 4.000000, 4.000000, 4.000000, 4.000000, 4.000000, 4.000000, 4.000000, 4.000000, 4.000000
102.000000, 0.000000, 4090.256348, 4122.563965, 4095.897217, 4108.717773, 4111.281738, 4119.487305, 4116.922852, 4102.051270, 4105.127930, 4081.025635, 4081.538330, 4080.000000, 4156.410156, 4038.974365, 3553.000000, 8228.000000, 8245.000000, 0.000000, 0.000000, 0.000000, 1.000000, 208.717926, 1545658523.297718, 4.000000, 4.000000, 4.000000, 4.000000, 4.000000, 4.000000, 4.000000, 4.000000, 4.000000, 4.000000, 4.000000, 4.000000, 4.000000, 4.000000, 4.000000, 4.000000
103.000000, 0.000000, 4093.845947, 4120.512695, 4105.641113, 4111.281738, 4116.922852, 4126.666504, 4132.307617, 4114.358887, 4120.512695, 4100.000000, 4095.384521, 4094.871582, 4170.256348, 4047.179443, 3274.000000, 8222.000000, 8236.000000, 0.000000, 0.000000, 0.000000, 1.000000, 216.410248, 1545658523.305410, 4.000000, 4.000000, 4.000000, 4.000000, 4.000000, 4.000000, 4.000000, 4.000000, 4.000000, 4.000000, 4.000000, 4.000000, 4.000000, 4.000000, 4.000000, 4.000000
104.000000, 0.000000, 4091.794678, 4113.846191, 4103.076660, 4105.641113, 4115.897461, 4123.076660, 4124.102539, 4098.461426, 4106.153809, 4089.230713, 4084.615234, 4093.845947, 4162.051270, 4040.512695, 3517.000000, 8222.000000, 8236.000000, 0.000000, 0.000000, 0.000000, 1.000000, 224.615387, 1545658523.313616, 4.000000, 4.000000, 4.000000, 4.000000, 4.000000, 4.000000, 4.000000, 4.000000, 4.000000, 4.000000, 4.000000, 4.000000, 4.000000, 4.000000, 4.000000, 4.000000
105.000000, 0.000000, 4087.692139, 4123.076660, 4095.384521, 4106.666504, 4120.512695, 4125.127930, 4119.487305, 4092.820313, 4091.794678, 4069.743408, 4075.384521, 4084.102539, 4143.589844, 4032.307617, 3159.000000, 8210.000000, 8238.000000, 0.000000, 0.000000, 0.000000, 1.000000, 232.307709, 1545658523.321308, 4.000000, 4.000000, 4.000000, 4.000000, 4.000000, 4.000000, 4.000000, 4.000000, 4.000000, 4.000000, 4.000000, 4.000000, 4.000000, 4.000000, 4.000000, 4.000000
106.000000, 0.000000, 4092.307617, 4135.897461, 4102.563965, 4118.974121, 4124.102539, 4124.102539, 4109.230469, 4103.076660, 4105.641113, 4079.487061, 4087.692139, 4091.794678, 4143.589844, 4038.974365, 3553.000000, 8210.000000, 8238.000000, 0.000000, 0.000000, 0.000000, 1.000000, 239.999969, 1545658523.329000, 4.000000, 4.000000, 4.000000, 4.000000, 4.000000, 4.000000, 4.000000, 4.000000, 4.000000, 4.000000, 4.000000, 4.000000, 4.000000, 4.000000, 4.000000, 4.000000
107.000000, 0.000000, 4104.102539, 4142.563965, 4115.384277, 4130.256348, 4120.000000, 4118.461426, 4102.051270, 4106.153809, 4120.512695, 4096.410156, 4095.897217, 4105.127930, 4153.846191, 4049.230713, 3274.000000, 8197.000000, 8227.000000, 0.000000, 0.000000, 0.000000, 1.000000, 248.205109, 1545658523.337205, 4.000000, 4.000000, 4.000000, 4.000000, 4.000000, 4.000000, 4.000000, 4.000000, 4.000000, 4.000000, 4.000000, 4.000000, 4.000000, 4.000000, 4.000000, 4.000000
108.000000, 0.000000, 4109.230469, 4153.846191, 4122.563965, 4138.974121, 4129.230469, 4128.205078, 4122.051270, 4103.076660, 4112.307617, 4091.281982, 4094.871582, 4109.230469, 4155.384277, 4055.897217, 3517.000000, 8197.000000, 8227.000000, 0.000000, 0.000000, 0.000000, 1.000000, 255.897430, 1545658523.344898, 4.000000, 4.000000, 4.000000, 4.000000, 4.000000, 4.000000, 4.000000, 4.000000, 4.000000, 4.000000, 4.000000, 4.000000, 4.000000, 4.000000, 4.000000, 4.000000
109.000000, 0.000000, 4107.179199, 4159.487305, 4124.615234, 4142.563965, 4146.666504, 4143.589844, 4141.538574, 4106.153809, 4110.769043, 4087.179443, 4097.436035, 4108.205078, 4144.102539, 4058.974365, 3159.000000, 8198.000000, 8232.000000, 0.000000, 0.000000, 0.000000, 1.000000, 264.102570, 1545658523.353102, 4.000000, 4.000000, 4.000000, 4.000000, 4.000000, 4.000000, 4.000000, 4.000000, 4.000000, 4.000000, 4.000000, 4.000000, 4.000000, 4.000000, 4.000000, 4.000000
110.000000, 0.000000, 4104.102539, 4153.333008, 4116.922852, 4139.487305, 4143.076660, 4146.153809, 4138.461426, 4110.769043, 4124.102539, 4096.922852, 4096.410156, 4099.487305, 4136.410156, 4051.794678, 3553.000000, 8198.000000, 8232.000000, 0.000000, 0.000000, 0.000000, 1.000000, 271.794891, 1545658523.360795, 4.000000, 4.000000, 4.000000, 4.000000, 4.000000, 4.000000, 4.000000, 4.000000, 4.000000, 4.000000, 4.000000, 4.000000, 4.000000, 4.000000, 4.000000, 4.000000
111.000000, 1.000000, 4105.641113, 4153.846191, 4117.948730, 4139.487305, 4143.076660, 4146.153809, 4138.461426, 4114.871582, 4127.692383, 4100.512695, 4099.487305, 4100.512695, 4137.948730, 4053.333252, 3497.000000, 8198.000000, 8232.000000, 0.000000, 0.000000, 0.000000, 1.000000, 279.487152, 1545658523.368487, 4.000000, 4.000000, 4.000000, 4.000000, 4.000000, 4.000000, 4.000000, 4.000000, 4.000000, 4.000000, 4.000000, 4.000000, 4.000000, 4.000000, 4.000000, 4.000000
112.000000, 1.000000, 4107.179199, 4154.358887, 4119.487305, 4139.487305, 4143.076660, 4145.641113, 4138.461426, 4119.487305, 4131.281738, 4104.102539, 4102.051270, 4101.538574, 4138.974121, 4054.871582, 3441.000000, 8198.000000, 8232.000000, 0.000000, 0.000000, 0.000000, 1.000000, 287.692291, 1545658523.376692, 4.000000, 4.000000, 4.000000, 4.000000, 4.000000, 4.000000, 4.000000, 4.000000, 4.000000, 4.000000, 4.000000, 4.000000, 4.000000, 4.000000, 4.000000, 4.000000
113.000000, 1.000000, 4108.205078, 4154.871582, 4120.512695, 4139.487305, 4143.076660, 4145.641113, 4138.461426, 4123.589844, 4134.871582, 4107.692383, 4105.127930, 4102.563965, 4140.000000, 4056.410156, 3385.000000, 8198.000000, 8232.000000, 0.000000, 0.000000, 0.000000, 1.000000, 295.384613, 1545658523.384385, 4.000000, 4.000000, 4.000000, 4.000000, 4.000000, 4.000000, 4.000000, 4.000000, 4.000000, 4.000000, 4.000000, 4.000000, 4.000000, 4.000000, 4.000000, 4.000000
114.000000, 1.000000, 4109.743652, 4155.384277, 4122.051270, 4139.487305, 4143.076660, 4145.127930, 4138.461426, 4128.205078, 4138.974121, 4111.794922, 4107.692383, 4104.102539, 4141.025391, 4057.948730, 3329.000000, 8198.000000, 8232.000000, 0.000000, 0.000000, 0.000000, 1.000000, 303.589752, 1545658523.392590, 4.000000, 4.000000, 4.000000, 4.000000, 4.000000, 4.000000, 4.000000, 4.000000, 4.000000, 4.000000, 4.000000, 4.000000, 4.000000, 4.000000, 4.000000, 4.000000
115.000000, 1.000000, 4111.281738, 4155.897461, 4123.076660, 4139.487305, 4143.076660, 4145.127930, 4138.461426, 4132.307617, 4142.563965, 4115.384277, 4110.769043, 4105.127930, 4142.563965, 4059.487061, 3273.000000, 8198.000000, 8232.000000, 0.000000, 0.000000, 0.000000, 1.000000, 311.282074, 1545658523.400282, 4.000000, 4.000000, 4.000000, 4.000000, 4.000000, 4.000000, 4.000000, 4.000000, 4.000000, 4.000000, 4.000000, 4.000000, 4.000000, 4.000000, 4.000000, 4.000000
116.000000, 1.000000, 4112.820313, 4156.410156, 4124.615234, 4139.487305, 4143.076660, 4144.615234, 4138.461426, 4136.922852, 4146.153809, 4118.974121, 4113.333008, 4106.153809, 4143.589844, 4061.025635, 3217.000000, 8198.000000, 8232.000000, 0.000000, 0.000000, 0.000000, 1.000000, 319.487152, 1545658523.408487, 4.000000, 4.000000, 4.000000, 4.000000, 4.000000, 4.000000, 4.000000, 4.000000, 4.000000, 4.000000, 4.000000, 4.000000, 4.000000, 4.000000, 4.000000, 4.000000
117.000000, 0.000000, 4114.358887, 4157.436035, 4126.666504, 4139.487305, 4143.076660, 4143.589844, 4137.948730, 4141.538574, 4149.743652, 4123.589844, 4116.922852, 4107.692383, 4144.615234, 4062.563965, 3159.000000, 8192.000000, 8232.000000, 0.000000, 0.000000, 0.000000, 1.000000, 327.179474, 1545658523.416179, 4.000000, 4.000000, 4.000000, 4.000000, 4.000000, 4.000000, 4.000000, 4.000000, 4.000000, 4.000000, 4.000000, 4.000000, 4.000000, 4.000000, 4.000000, 4.000000
118.000000, 0.000000, 4127.179199, 4173.333008, 4141.025391, 4157.948730, 4156.922852, 4162.563965, 4160.000000, 4132.307617, 4147.179199, 4124.615234, 4120.512695, 4117.948730, 4152.307617, 4078.461426, 3553.000000, 8192.000000, 8232.000000, 0.000000, 0.000000, 0.000000, 1.000000, 334.871796, 1545658523.423872, 4.000000, 4.000000, 4.000000, 4.000000, 4.000000, 4.000000, 4.000000, 4.000000, 4.000000, 4.000000, 4.000000, 4.000000, 4.000000, 4.000000, 4.000000, 4.000000
119.000000, 0.000000, 4121.025391, 4170.256348, 4130.256348, 4155.384277, 4157.436035, 4165.641113, 4160.512695, 4122.051270, 4140.512695, 4110.769043, 4106.666504, 4111.794922, 4137.436035, 4067.692139, 3274.000000, 8129.000000, 8224.000000, 0.000000, 0.000000, 0.000000, 1.000000, 343.076935, 1545658523.432077, 4.000000, 4.000000, 4.000000, 4.000000, 4.000000, 4.000000, 4.000000, 4.000000, 4.000000, 4.000000, 4.000000, 4.000000, 4.000000, 4.000000, 4.000000, 4.000000
120.000000, 0.000000, 4108.717773, 4153.333008, 4115.897461, 4138.461426, 4148.717773, 4151.281738, 4148.717773, 4131.281738, 4138.974121, 4105.127930, 4101.025391, 4103.076660, 4128.205078, 4053.333252, 3517.000000, 8129.000000, 8224.000000, 0.000000, 0.000000, 0.000000, 1.000000, 350.769196, 1545658523.439769, 4.000000, 4.000000, 4.000000, 4.000000, 4.000000, 4.000000, 4.000000, 4.000000, 4.000000, 4.000000, 4.000000, 4.000000, 4.000000, 4.000000, 4.000000, 4.000000
121.000000, 0.000000, 4112.820313, 4151.794922, 4124.615234, 4140.000000, 4153.333008, 4152.820313, 4156.922852, 4137.948730, 4140.000000, 4113.846191, 4110.769043, 4108.717773, 4135.384277, 4059.487061, 3159.000000, 8192.000000, 8226.000000, 0.000000, 0.000000, 0.000000, 1.000000, 358.461517, 1545658523.447461, 4.000000, 4.000000, 4.000000, 4.000000, 4.000000, 4.000000, 4.000000, 4.000000, 4.000000, 4.000000, 4.000000, 4.000000, 4.000000, 4.000000, 4.000000, 4.000000
122.000000, 0.000000, 4124.102539, 4162.051270, 4137.948730, 4154.358887, 4160.000000, 4165.127930, 4166.666504, 4140.512695, 4152.820313, 4123.589844, 4117.436035, 4117.948730, 4140.512695, 4068.717773, 3553.000000, 8192.000000, 8226.000000, 0.000000, 0.000000, 0.000000, 1.000000, 366.666656, 1545658523.455667, 4.000000, 4.000000, 4.000000, 4.000000, 4.000000, 4.000000, 4.000000, 4.000000, 4.000000, 4.000000, 4.000000, 4.000000, 4.000000, 4.000000, 4.000000, 4.000000
123.000000, 0.000000, 4112.820313, 4151.794922, 4124.102539, 4141.025391, 4148.205078, 4154.871582, 4154.358887, 4138.974121, 4154.358887, 4118.461426, 4105.127930, 4107.179199, 4122.051270, 4055.384521, 3274.000000, 8193.000000, 8232.000000, 0.000000, 0.000000, 0.000000, 1.000000, 374.358978, 1545658523.463359, 4.000000, 4.000000, 4.000000, 4.000000, 4.000000, 4.000000, 4.000000, 4.000000, 4.000000, 4.000000, 4.000000, 4.000000, 4.000000, 4.000000, 4.000000, 4.000000
124.000000, 0.000000, 4103.076660, 4144.615234, 4114.358887, 4127.692383, 4145.127930, 4150.769043, 4151.794922, 4129.743652, 4136.410156, 4107.692383, 4097.948730, 4099.487305, 4110.769043, 4050.256348, 3517.000000, 8193.000000, 8232.000000, 0.000000, 0.000000, 0.000000, 1.000000, 382.564117, 1545658523.471564, 4.000000, 4.000000, 4.000000, 4.000000, 4.000000, 4.000000, 4.000000, 4.000000, 4.000000, 4.000000, 4.000000, 4.000000, 4.000000, 4.000000, 4.000000, 4.000000
125.000000, 0.000000, 4146.666504, 4186.666504, 4153.846191, 4175.384277, 4187.179199, 4191.281738, 4191.794922, 4163.076660, 4166.153809, 4138.461426, 4137.948730, 4138.461426, 4154.358887, 4095.897217, 3159.000000, 8196.000000, 8237.000000, 0.000000, 0.000000, 0.000000, 1.000000, 390.256378, 1545658523.479256, 4.000000, 4.000000, 4.000000, 4.000000, 4.000000, 4.000000, 4.000000, 4.000000, 4.000000, 4.000000, 4.000000, 4.000000, 4.000000, 4.000000, 4.000000, 4.000000
126.000000, 0.000000, 4192.307617, 4235.897461, 4195.384277, 4226.153809, 4224.615234, 4224.615234, 4214.871582, 4205.127930, 4223.589844, 4186.153809, 4185.641113, 4178.461426, 4198.461426, 4138.461426, 3553.000000, 8196.000000, 8237.000000, 0.000000, 0.000000, 0.000000, 1.000000, 397.948700, 1545658523.486949, 4.000000, 4.000000, 4.000000, 4.000000, 4.000000, 4.000000, 4.000000, 4.000000, 4.000000, 4.000000, 4.000000, 4.000000, 4.000000, 4.000000, 4.000000, 4.000000
127.000000, 0.000000, 4184.615234, 4236.922852, 4190.256348, 4215.897461, 4213.333008, 4217.436035, 4201.025391, 4185.127930, 4222.563965, 4189.743652, 4184.102539, 4171.794922, 4187.692383, 4127.692383, 56.000000, 8202.000000, 8238.000000, 0.000000, 0.000000, 0.000000, 1.000000, 406.153839, 1545658523.495154, 4.000000, 4.000000, 4.000000, 4.000000, 4.000000, 4.000000, 4.000000, 4.000000, 4.000000, 4.000000, 4.000000, 4.000000, 4.000000, 4.000000, 4.000000, 4.000000
0.000000, 0.000000, 4175.897461, 4221.538574, 4182.563965, 4201.538574, 4200.000000, 4209.230469, 4204.102539, 4158.974121, 4199.487305, 4182.051270, 4173.333008, 4166.666504, 4178.974121, 4121.538574, 3321.000000, 8202.000000, 8238.000000, 0.000000, 0.000000, 0.000000, 1.000000, 413.846161, 1545658523.502846, 4.000000, 4.000000, 4.000000, 4.000000, 4.000000, 4.000000, 4.000000, 4.000000, 4.000000, 4.000000, 4.000000, 4.000000, 4.000000, 4.000000, 4.000000, 4.000000
1.000000, 0.000000, 4187.692383, 4221.538574, 4190.769043, 4209.230469, 4202.051270, 4207.179199, 4208.717773, 4168.717773, 4203.076660, 4184.615234, 4183.589844, 4176.922852, 4191.281738, 4136.922852, 3506.000000, 8201.000000, 8232.000000, 0.000000, 0.000000, 0.000000, 1.000000, 421.538422, 1545658523.510538, 4.000000, 4.000000, 4.000000, 4.000000, 4.000000, 4.000000, 4.000000, 4.000000, 4.000000, 4.000000, 4.000000, 4.000000, 4.000000, 4.000000, 4.000000, 4.000000
2.000000, 0.000000, 4186.666504, 4222.563965, 4188.717773, 4206.153809, 4196.922852, 4200.000000, 4195.384277, 4173.333008, 4204.615234, 4176.410156, 4188.717773, 4173.333008, 4188.717773, 4136.410156, 3309.000000, 8201.000000, 8232.000000, 0.000000, 0.000000, 0.000000, 1.000000, 429.743561, 1545658523.518744, 4.000000, 4.000000, 4.000000, 4.000000, 4.000000, 4.000000, 4.000000, 4.000000, 4.000000, 4.000000, 4.000000, 4.000000, 4.000000, 4.000000, 4.000000, 4.000000
3.000000, 0.000000, 4181.025391, 4220.000000, 4187.692383, 4200.000000, 4196.410156, 4201.538574, 4200.512695, 4174.358887, 4198.974121, 4167.692383, 4187.179199, 4174.358887, 4189.743652, 4134.358887, 3576.000000, 8197.000000, 8240.000000, 0.000000, 0.000000, 0.000000, 1.000000, 437.435883, 1545658523.526436, 4.000000, 4.000000, 4.000000, 4.000000, 4.000000, 4.000000, 4.000000, 4.000000, 4.000000, 4.000000, 4.000000, 4.000000, 4.000000, 4.000000, 4.000000, 4.000000
4.000000, 0.000000, 4185.127930, 4220.000000, 4191.281738, 4206.153809, 4207.692383, 4210.256348, 4216.922852, 4184.615234, 4202.051270, 4173.333008, 4190.769043, 4183.076660, 4201.025391, 4140.512695, 3368.000000, 8197.000000, 8240.000000, 0.000000, 0.000000, 0.000000, 1.000000, 445.641022, 1545658523.534641, 4.000000, 4.000000, 4.000000, 4.000000, 4.000000, 4.000000, 4.000000, 4.000000, 4.000000, 4.000000, 4.000000, 4.000000, 4.000000, 4.000000, 4.000000, 4.000000
5.000000, 0.000000, 4178.461426, 4215.897461, 4181.025391, 4201.025391, 4204.102539, 4203.589844, 4200.000000, 4173.333008, 4196.410156, 4172.307617, 4180.000000, 4168.717773, 4189.230469, 4128.717773, 3472.000000, 8192.000000, 8246.000000, 0.000000, 0.000000, 0.000000, 1.000000, 453.333344, 1545658523.542333, 4.000000, 4.000000, 4.000000, 4.000000, 4.000000, 4.000000, 4.000000, 4.000000, 4.000000, 4.000000, 4.000000, 4.000000, 4.000000, 4.000000, 4.000000, 4.000000
6.000000, 0.000000, 4160.512695, 4204.615234, 4164.615234, 4186.666504, 4189.230469, 4189.743652, 4181.025391, 4153.846191, 4181.025391, 4155.897461, 4156.922852, 4143.076660, 4167.179199, 4107.692383, 3404.000000, 8192.000000, 8246.000000, 0.000000, 0.000000, 0.000000, 1.000000, 461.025604, 1545658523.550026, 4.000000, 4.000000, 4.000000, 4.000000, 4.000000, 4.000000, 4.000000, 4.000000, 4.000000, 4.000000, 4.000000, 4.000000, 4.000000, 4.000000, 4.000000, 4.000000
7.000000, 0.000000, 4156.922852, 4191.281738, 4163.076660, 4181.538574, 4182.563965, 4186.666504, 4193.333008, 4155.897461, 4182.563965, 4151.794922, 4150.769043, 4141.025391, 4163.589844, 4102.051270, 3179.000000, 8199.000000, 8252.000000, 0.000000, 0.000000, 0.000000, 1.000000, 469.230743, 1545658523.558231, 4.000000, 4.000000, 4.000000, 4.000000, 4.000000, 4.000000, 4.000000, 4.000000, 4.000000, 4.000000, 4.000000, 4.000000, 4.000000, 4.000000, 4.000000, 4.000000
8.000000, 0.000000, 4165.641113, 4191.794922, 4173.846191, 4184.102539, 4185.127930, 4192.820313, 4200.512695, 4167.692383, 4192.307617, 4161.538574, 4158.974121, 4154.871582, 4168.717773, 4111.794922, 3403.000000, 8199.000000, 8252.000000, 0.000000, 0.000000, 0.000000, 1.000000, 476.923065, 1545658523.565923, 4.000000, 4.000000, 4.000000, 4.000000, 4.000000, 4.000000, 4.000000, 4.000000, 4.000000, 4.000000, 4.000000, 4.000000, 4.000000, 4.000000, 4.000000, 4.000000
9.000000, 0.000000, 4176.410156, 4204.615234, 4183.589844, 4191.281738, 4191.281738, 4198.974121, 4194.871582, 4176.922852, 4196.922852, 4166.666504, 4165.641113, 4168.205078, 4174.358887, 4123.589844, 3212.000000, 8202.000000, 8244.000000, 0.000000, 0.000000, 0.000000, 1.000000, 485.128204, 1545658523.574128, 4.000000, 4.000000, 4.000000, 4.000000, 4.000000, 4.000000, 4.000000, 4.000000, 4.000000, 4.000000, 4.000000, 4.000000, 4.000000, 4.000000, 4.000000, 4.000000
10.000000, 0.000000, 4185.641113, 4217.436035, 4195.897461, 4205.641113, 4201.538574, 4205.127930, 4196.922852, 4174.871582, 4203.076660, 4176.922852, 4177.436035, 4177.948730, 4184.615234, 4133.846191, 3303.000000, 8202.000000, 8244.000000, 0.000000, 0.000000, 0.000000, 1.000000, 492.820526, 1545658523.581820, 4.000000, 4.000000, 4.000000, 4.000000, 4.000000, 4.000000, 4.000000, 4.000000, 4.000000, 4.000000, 4.000000, 4.000000, 4.000000, 4.000000, 4.000000, 4.000000
11.000000, 0.000000, 4189.230469, 4227.179199, 4200.512695, 4217.948730, 4211.281738, 4203.589844, 4190.256348, 4162.563965, 4198.974121, 4185.641113, 4184.102539, 4177.948730, 4191.281738, 4140.000000, 3459.000000, 8207.000000, 8234.000000, 0.000000, 0.000000, 0.000000, 1.000000, 500.512787, 1545658523.589513, 4.000000, 4.000000, 4.000000, 4.000000, 4.000000, 4.000000, 4.000000, 4.000000, 4.000000, 4.000000, 4.000000, 4.000000, 4.000000, 4.000000, 4.000000, 4.000000
12.000000, 0.000000, 4186.153809, 4232.307617, 4190.256348, 4216.410156, 4210.256348, 4198.974121, 4175.897461, 4156.922852, 4186.666504, 4177.436035, 4174.871582, 4167.692383, 4188.205078, 4131.794922, 3507.000000, 8207.000000, 8234.000000, 0.000000, 0.000000, 0.000000, 1.000000, 508.717926, 1545658523.597718, 4.000000, 4.000000, 4.000000, 4.000000, 4.000000, 4.000000, 4.000000, 4.000000, 4.000000, 4.000000, 4.000000, 4.000000, 4.000000, 4.000000, 4.000000, 4.000000
13.000000, 0.000000, 4183.076660, 4230.769043, 4182.563965, 4214.358887, 4208.717773, 4208.205078, 4189.743652, 4162.051270, 4181.538574, 4161.538574, 4166.666504, 4157.948730, 4177.436035, 4121.025391, 3150.000000, 8206.000000, 8224.000000, 0.000000, 0.000000, 0.000000, 1.000000, 516.410248, 1545658523.605410, 4.000000, 4.000000, 4.000000, 4.000000, 4.000000, 4.000000, 4.000000, 4.000000, 4.000000, 4.000000, 4.000000, 4.000000, 4.000000, 4.000000, 4.000000, 4.000000
14.000000, 0.000000, 4186.666504, 4232.820313, 4186.666504, 4220.000000, 4216.410156, 4219.487305, 4215.384277, 4172.820313, 4185.641113, 4158.461426, 4173.333008, 4161.538574, 4171.281738, 4128.717773, 3303.000000, 8206.000000, 8224.000000, 0.000000, 0.000000, 0.000000, 1.000000, 524.102570, 1545658523.613102, 4.000000, 4.000000, 4.000000, 4.000000, 4.000000, 4.000000, 4.000000, 4.000000, 4.000000, 4.000000, 4.000000, 4.000000, 4.000000, 4.000000, 4.000000, 4.000000
15.000000, 0.000000, 4188.717773, 4236.410156, 4190.769043, 4218.461426, 4221.025391, 4218.974121, 4219.487305, 4184.102539, 4194.871582, 4167.692383, 4183.589844, 4170.256348, 4182.563965, 4140.000000, 3459.000000, 8208.000000, 8235.000000, 0.000000, 0.000000, 0.000000, 1.000000, 532.307709, 1545658523.621308, 4.000000, 4.000000, 4.000000, 4.000000, 4.000000, 4.000000, 4.000000, 4.000000, 4.000000, 4.000000, 4.000000, 4.000000, 4.000000, 4.000000, 4.000000, 4.000000
16.000000, 0.000000, 4185.641113, 4226.153809, 4191.281738, 4210.256348, 4217.948730, 4216.410156, 4223.589844, 4185.641113, 4200.000000, 4171.794922, 4185.641113, 4168.717773, 4189.230469, 4137.436035, 0.000000, 8208.000000, 8235.000000, 0.000000, 0.000000, 0.000000, 1.000000, 539.999969, 1545658523.629000, 4.000000, 4.000000, 4.000000, 4.000000, 4.000000, 4.000000, 4.000000, 4.000000, 4.000000, 4.000000, 4.000000, 4.000000, 4.000000, 4.000000, 4.000000, 4.000000
17.000000, 0.000000, 4184.615234, 4212.820313, 4195.384277, 4212.307617, 4216.922852, 4218.974121, 4237.436035, 4182.051270, 4200.000000, 4170.769043, 4181.025391, 4167.692383, 4177.948730, 4136.922852, 0.000000, 8211.000000, 8234.000000, 0.000000, 0.000000, 0.000000, 1.000000, 548.205109, 1545658523.637205, 4.000000, 4.000000, 4.000000, 4.000000, 4.000000, 4.000000, 4.000000, 4.000000, 4.000000, 4.000000, 4.000000, 4.000000, 4.000000, 4.000000, 4.000000, 4.000000
18.000000, 0.000000, 4188.717773, 4220.512695, 4195.384277, 4216.410156, 4217.436035, 4220.000000, 4231.794922, 4184.615234, 4197.436035, 4172.307617, 4182.563965, 4173.333008, 4176.922852, 4143.589844, 0.000000, 8211.000000, 8234.000000, 0.000000, 0.000000, 0.000000, 1.000000, 555.897430, 1545658523.644897, 4.000000, 4.000000, 4.000000, 4.000000, 4.000000, 4.000000, 4.000000, 4.000000, 4.000000, 4.000000, 4.000000, 4.000000, 4.000000, 4.000000, 4.000000, 4.000000
19.000000, 0.000000, 4183.589844, 4224.102539, 4188.717773, 4207.692383, 4209.230469, 4215.897461, 4213.333008, 4189.230469, 4202.563965, 4175.897461, 4184.615234, 4168.205078, 4178.974121, 4137.948730, 0.000000, 8210.000000, 8232.000000, 0.000000, 0.000000, 0.000000, 1.000000, 563.589752, 1545658523.652590, 4.000000, 4.000000, 4.000000, 4.000000, 4.000000, 4.000000, 4.000000, 4.000000, 4.000000, 4.000000, 4.000000, 4.000000, 4.000000, 4.000000, 4.000000, 4.000000
20.000000, 0.000000, 4173.333008, 4208.717773, 4182.563965, 4198.461426, 4202.563965, 4206.153809, 4201.025391, 4178.461426, 4205.641113, 4178.461426, 4177.948730, 4155.384277, 4169.230469, 4126.153809, 0.000000, 8210.000000, 8232.000000, 0.000000, 0.000000, 0.000000, 1.000000, 571.794830, 1545658523.660795, 4.000000, 4.000000, 4.000000, 4.000000, 4.000000, 4.000000, 4.000000, 4.000000, 4.000000, 4.000000, 4.000000, 4.000000, 4.000000, 4.000000, 4.000000, 4.000000
21.000000, 0.000000, 4173.333008, 4203.589844, 4176.410156, 4199.487305, 4201.538574, 4188.717773, 4182.051270, 4151.281738, 4187.692383, 4170.769043, 4169.743652, 4153.333008, 4160.512695, 4124.615234, 0.000000, 8211.000000, 8227.000000, 0.000000, 0.000000, 0.000000, 1.000000, 579.487152, 1545658523.668487, 4.000000, 4.000000, 4.000000, 4.000000, 4.000000, 4.000000, 4.000000, 4.000000, 4.000000, 4.000000, 4.000000, 4.000000, 4.000000, 4.000000, 4.000000, 4.000000
22.000000, 0.000000, 4178.461426, 4215.384277, 4175.897461, 4201.025391, 4199.487305, 4185.127930, 4173.333008, 4142.051270, 4170.769043, 4158.461426, 4169.230469, 4157.436035, 4160.512695, 4126.666504, 0.000000, 8211.000000, 8227.000000, 0.000000, 0.000000, 0.000000, 1.000000, 587.179474, 1545658523.676179, 4.000000, 4.000000, 4.000000, 4.000000, 4.000000, 4.000000, 4.000000, 4.000000, 4.000000, 4.000000, 4.000000, 4.000000, 4.000000, 4.000000, 4.000000, 4.000000
23.000000, 0.000000, 4176.410156, 4211.794922, 4176.922852, 4195.897461, 4193.333008, 4188.717773, 4187.179199, 4155.897461, 4172.307617, 4159.487305, 4173.846191, 4156.410156, 4161.538574, 4126.153809, 0.000000, 8199.000000, 8228.000000, 0.000000, 0.000000, 0.000000, 1.000000, 595.384613, 1545658523.684385, 4.000000, 4.000000, 4.000000, 4.000000, 4.000000, 4.000000, 4.000000, 4.000000, 4.000000, 4.000000, 4.000000, 4.000000, 4.000000, 4.000000, 4.000000, 4.000000
24.000000, 0.000000, 4152.820313, 4179.487305, 4154.358887, 4173.333008, 4174.358887, 4168.717773, 4176.922852, 4145.641113, 4157.948730, 4148.717773, 4154.871582, 4135.897461, 4137.436035, 4104.102539, 0.000000, 8199.000000, 8228.000000, 0.000000, 0.000000, 0.000000, 1.000000, 603.076935, 1545658523.692077, 4.000000, 4.000000, 4.000000, 4.000000, 4.000000, 4.000000, 4.000000, 4.000000, 4.000000, 4.000000, 4.000000, 4.000000, 4.000000, 4.000000, 4.000000, 4.000000
25.000000, 0.000000, 4122.563965, 4149.230469, 4123.076660, 4137.436035, 4147.692383, 4138.974121, 4143.076660, 4116.410156, 4122.051270, 4111.794922, 4122.563965, 4109.743652, 4101.538574, 4072.820313, 0.000000, 8196.000000, 8232.000000, 0.000000, 0.000000, 0.000000, 1.000000, 611.282013, 1545658523.700282, 4.000000, 4.000000, 4.000000, 4.000000, 4.000000, 4.000000, 4.000000, 4.000000, 4.000000, 4.000000, 4.000000, 4.000000, 4.000000, 4.000000, 4.000000, 4.000000
26.000000, 0.000000, 4110.256348, 4138.974121, 4115.897461, 4121.538574, 4130.769043, 4130.769043, 4138.974121, 4105.127930, 4108.717773, 4092.820313, 4110.256348, 4102.563965, 4088.717773, 4064.615234, 0.000000, 8196.000000, 8232.000000, 0.000000, 0.000000, 0.000000, 1.000000, 618.974335, 1545658523.707974, 4.000000, 4.000000, 4.000000, 4.000000, 4.000000, 4.000000, 4.000000, 4.000000, 4.000000, 4.000000, 4.000000, 4.000000, 4.000000, 4.000000, 4.000000, 4.000000
27.000000, 0.000000, 4102.051270, 4124.615234, 4108.717773, 4117.436035, 4120.000000, 4120.000000, 4132.820313, 4094.871582, 4106.153809, 4093.333252, 4100.000000, 4095.897217, 4075.897217, 4060.512695, 0.000000, 8193.000000, 8223.000000, 0.000000, 0.000000, 0.000000, 1.000000, 626.666656, 1545658523.715667, 4.000000, 4.000000, 4.000000, 4.000000, 4.000000, 4.000000, 4.000000, 4.000000, 4.000000, 4.000000, 4.000000, 4.000000, 4.000000, 4.000000, 4.000000, 4.000000
28.000000, 0.000000, 4084.615234, 4104.102539, 4086.666504, 4101.538574, 4104.615234, 4096.922852, 4106.153809, 4081.025635, 4088.717773, 4077.435791, 4073.845947, 4073.333252, 4049.230713, 4037.435791, 0.000000, 8193.000000, 8223.000000, 0.000000, 0.000000, 0.000000, 1.000000, 634.871796, 1545658523.723872, 4.000000, 4.000000, 4.000000, 4.000000, 4.000000, 4.000000, 4.000000, 4.000000, 4.000000, 4.000000, 4.000000, 4.000000, 4.000000, 4.000000, 4.000000, 4.000000
29.000000, 0.000000, 4078.974365, 4099.487305, 4081.025635, 4091.794678, 4101.025391, 4093.845947, 4104.615234, 4083.076904, 4083.589600, 4069.230713, 4072.307617, 4067.179443, 4045.640869, 4031.281982, 0.000000, 8192.000000, 8228.000000, 0.000000, 0.000000, 0.000000, 1.000000, 642.564117, 1545658523.731564, 4.000000, 4.000000, 4.000000, 4.000000, 4.000000, 4.000000, 4.000000, 4.000000, 4.000000, 4.000000, 4.000000, 4.000000, 4.000000, 4.000000, 4.000000, 4.000000
30.000000, 0.000000, 4087.692139, 4107.692383, 4091.281982, 4100.000000, 4108.205078, 4105.641113, 4115.384277, 4088.205078, 4093.333252, 4079.487061, 4089.230713, 4080.000000, 4060.000000, 4046.153809, 0.000000, 8192.000000, 8228.000000, 0.000000, 0.000000, 0.000000, 1.000000, 650.256378, 1545658523.739256, 4.000000, 4.000000, 4.000000, 4.000000, 4.000000, 4.000000, 4.000000, 4.000000, 4.000000, 4.000000, 4.000000, 4.000000, 4.000000, 4.000000, 4.000000, 4.000000
31.000000, 0.000000, 4088.717773, 4111.281738, 4090.769043, 4104.615234, 4111.281738, 4108.717773, 4115.384277, 4100.000000, 4106.153809, 4089.743408, 4088.717773, 4084.102539, 4061.025635, 4050.256348, 0.000000, 8191.000000, 8234.000000, 0.000000, 0.000000, 0.000000, 1.000000, 658.461517, 1545658523.747461, 4.000000, 4.000000, 4.000000, 4.000000, 4.000000, 4.000000, 4.000000, 4.000000, 4.000000, 4.000000, 4.000000, 4.000000, 4.000000, 4.000000, 4.000000, 4.000000
32.000000, 0.000000, 4086.153809, 4112.820313, 4086.666504, 4102.051270, 4111.281738, 4102.563965, 4113.333008, 4107.692383, 4116.922852, 4103.589844, 4090.256348, 4081.538330, 4064.615234, 4048.717773, 0.000000, 8191.000000, 8234.000000, 0.000000, 0.000000, 0.000000, 1.000000, 666.153839, 1545658523.755154, 4.000000, 4.000000, 4.000000, 4.000000, 4.000000, 4.000000, 4.000000, 4.000000, 4.000000, 4.000000, 4.000000, 4.000000, 4.000000, 4.000000, 4.000000, 4.000000
33.000000, 0.000000, 4095.897217, 4124.615234, 4094.358887, 4107.179199, 4121.025391, 4108.717773, 4121.025391, 4095.384521, 4112.307617, 4106.666504, 4103.589844, 4087.692139, 4076.923096, 4057.948730, 0.000000, 8192.000000, 8232.000000, 0.000000, 0.000000, 0.000000, 1.000000, 674.358978, 1545658523.763359, 4.000000, 4.000000, 4.000000, 4.000000, 4.000000, 4.000000, 4.000000, 4.000000, 4.000000, 4.000000, 4.000000, 4.000000, 4.000000, 4.000000, 4.000000, 4.000000
34.000000, 0.000000, 4116.922852, 4146.153809, 4117.436035, 4131.794922, 4143.076660, 4136.922852, 4133.333008, 4093.845947, 4115.897461, 4111.281738, 4123.076660, 4108.205078, 4095.897217, 4082.051270, 0.000000, 8192.000000, 8232.000000, 0.000000, 0.000000, 0.000000, 1.000000, 682.051239, 1545658523.771051, 4.000000, 4.000000, 4.000000, 4.000000, 4.000000, 4.000000, 4.000000, 4.000000, 4.000000, 4.000000, 4.000000, 4.000000, 4.000000, 4.000000, 4.000000, 4.000000
35.000000, 0.000000, 4132.307617, 4160.512695, 4131.794922, 4156.410156, 4160.512695, 4154.358887, 4142.563965, 4115.897461, 4140.000000, 4136.922852, 4144.615234, 4127.179199, 4117.436035, 4102.563965, 0.000000, 8191.000000, 8224.000000, 0.000000, 0.000000, 0.000000, 1.000000, 689.743598, 1545658523.778744, 4.000000, 4.000000, 4.000000, 4.000000, 4.000000, 4.000000, 4.000000, 4.000000, 4.000000, 4.000000, 4.000000, 4.000000, 4.000000, 4.000000, 4.000000, 4.000000
36.000000, 0.000000, 4128.717773, 4158.461426, 4126.666504, 4153.333008, 4160.000000, 4151.794922, 4146.153809, 4128.717773, 4150.256348, 4144.102539, 4146.153809, 4124.102539, 4117.436035, 4100.000000, 0.000000, 8191.000000, 8224.000000, 0.000000, 0.000000, 0.000000, 1.000000, 697.948727, 1545658523.786949, 4.000000, 4.000000, 4.000000, 4.000000, 4.000000, 4.000000, 4.000000, 4.000000, 4.000000, 4.000000, 4.000000, 4.000000, 4.000000, 4.000000, 4.000000, 4.000000
37.000000, 0.000000, 4114.358887, 4149.230469, 4118.461426, 4133.846191, 4147.692383, 4143.589844, 4149.743652, 4121.025391, 4132.307617, 4115.897461, 4123.589844, 4106.153809, 4094.871582, 4086.153809, 0.000000, 8195.000000, 8222.000000, 0.000000, 0.000000, 0.000000, 1.000000, 705.641033, 1545658523.794641, 4.000000, 4.000000, 4.000000, 4.000000, 4.000000, 4.000000, 4.000000, 4.000000, 4.000000, 4.000000, 4.000000, 4.000000, 4.000000, 4.000000, 4.000000, 4.000000
38.000000, 0.000000, 4112.307617, 4148.205078, 4119.487305, 4131.281738, 4143.076660, 4142.563965, 4152.307617, 4118.974121, 4126.666504, 4106.153809, 4122.563965, 4104.615234, 4090.769043, 4085.640869, 0.000000, 8195.000000, 8222.000000, 0.000000, 0.000000, 0.000000, 1.000000, 713.846161, 1545658523.802846, 4.000000, 4.000000, 4.000000, 4.000000, 4.000000, 4.000000, 4.000000, 4.000000, 4.000000, 4.000000, 4.000000, 4.000000, 4.000000, 4.000000, 4.000000, 4.000000
39.000000, 0.000000, 4132.307617, 4166.153809, 4134.358887, 4152.820313, 4156.410156, 4158.461426, 4154.358887, 4137.436035, 4155.897461, 4139.487305, 4152.820313, 4131.794922, 4114.358887, 4105.127930, 0.000000, 8197.000000, 8225.000000, 0.000000, 0.000000, 0.000000, 1.000000, 721.538467, 1545658523.810539, 4.000000, 4.000000, 4.000000, 4.000000, 4.000000, 4.000000, 4.000000, 4.000000, 4.000000, 4.000000, 4.000000, 4.000000, 4.000000, 4.000000, 4.000000, 4.000000
40.000000, 0.000000, 4138.461426, 4170.256348, 4142.051270, 4155.897461, 4157.948730, 4164.615234, 4162.051270, 4148.717773, 4161.538574, 4147.692383, 4151.281738, 4139.487305, 4115.897461, 4113.846191, 0.000000, 8197.000000, 8225.000000, 0.000000, 0.000000, 0.000000, 1.000000, 729.230778, 1545658523.818231, 4.000000, 4.000000, 4.000000, 4.000000, 4.000000, 4.000000, 4.000000, 4.000000, 4.000000, 4.000000, 4.000000, 4.000000, 4.000000, 4.000000, 4.000000, 4.000000
41.000000, 0.000000, 4119.487305, 4147.692383, 4129.743652, 4139.487305, 4146.153809, 4150.256348, 4171.281738, 4130.256348, 4129.743652, 4115.897461, 4123.076660, 4120.000000, 4090.256348, 4100.000000, 0.000000, 8199.000000, 8225.000000, 0.000000, 0.000000, 0.000000, 1.000000, 737.435905, 1545658523.826436, 4.000000, 4.000000, 4.000000, 4.000000, 4.000000, 4.000000, 4.000000, 4.000000, 4.000000, 4.000000, 4.000000, 4.000000, 4.000000, 4.000000, 4.000000, 4.000000
42.000000, 0.000000, 4136.410156, 4162.563965, 4147.179199, 4159.487305, 4169.230469, 4168.717773, 4192.820313, 4147.692383, 4150.256348, 4133.333008, 4147.692383, 4139.487305, 4110.769043, 4116.410156, 0.000000, 8199.000000, 8225.000000, 0.000000, 0.000000, 0.000000, 1.000000, 745.128212, 1545658523.834128, 4.000000, 4.000000, 4.000000, 4.000000, 4.000000, 4.000000, 4.000000, 4.000000, 4.000000, 4.000000, 4.000000, 4.000000, 4.000000, 4.000000, 4.000000, 4.000000
43.000000, 0.000000, 4190.256348, 4217.948730, 4196.922852, 4210.256348, 4212.820313, 4208.717773, 4212.307617, 4204.615234, 4219.487305, 4197.436035, 4207.179199, 4191.794922, 4170.769043, 4166.153809, 0.000000, 8192.000000, 8225.000000, 0.000000, 0.000000, 0.000000, 1.000000, 752.820518, 1545658523.841820, 4.000000, 4.000000, 4.000000, 4.000000, 4.000000, 4.000000, 4.000000, 4.000000, 4.000000, 4.000000, 4.000000, 4.000000, 4.000000, 4.000000, 4.000000, 4.000000
44.000000, 0.000000, 4191.794922, 4224.615234, 4196.410156, 4212.307617, 4204.615234, 4193.333008, 4189.230469, 4192.307617, 4212.820313, 4192.307617, 4202.563965, 4189.230469, 4171.281738, 4166.666504, 0.000000, 8192.000000, 8225.000000, 0.000000, 0.000000, 0.000000, 1.000000, 761.025650, 1545658523.850026, 4.000000, 4.000000, 4.000000, 4.000000, 4.000000, 4.000000, 4.000000, 4.000000, 4.000000, 4.000000, 4.000000, 4.000000, 4.000000, 4.000000, 4.000000, 4.000000
45.000000, 0.000000, 4152.307617, 4184.102539, 4154.871582, 4174.358887, 4169.743652, 4160.000000, 4161.538574, 4136.410156, 4152.307617, 4134.871582, 4159.487305, 4152.307617, 4127.179199, 4130.769043, 0.000000, 8206.000000, 8222.000000, 0.000000, 0.000000, 0.000000, 1.000000, 768.717957, 1545658523.857718, 4.000000, 4.000000, 4.000000, 4.000000, 4.000000, 4.000000, 4.000000, 4.000000, 4.000000, 4.000000, 4.000000, 4.000000, 4.000000, 4.000000, 4.000000, 4.000000
46.000000, 0.000000, 4147.179199, 4170.256348, 4150.256348, 4165.127930, 4166.153809, 4164.615234, 4167.179199, 4131.281738, 4148.205078, 4133.333008, 4153.846191, 4151.281738, 4120.000000, 4131.794922, 0.000000, 8206.000000, 8222.000000, 0.000000, 0.000000, 0.000000, 1.000000, 776.923080, 1545658523.865923, 4.000000, 4.000000, 4.000000, 4.000000, 4.000000, 4.000000, 4.000000, 4.000000, 4.000000, 4.000000, 4.000000, 4.000000, 4.000000, 4.000000, 4.000000, 4.000000
47.000000, 0.000000, 4151.281738, 4173.333008, 4156.922852, 4168.205078, 4165.641113, 4170.769043, 4168.717773, 4144.615234, 4167.179199, 4158.461426, 4161.538574, 4156.922852, 4128.205078, 4135.897461, 0.000000, 8213.000000, 8230.000000, 0.000000, 0.000000, 0.000000, 1.000000, 784.615387, 1545658523.873616, 4.000000, 4.000000, 4.000000, 4.000000, 4.000000, 4.000000, 4.000000, 4.000000, 4.000000, 4.000000, 4.000000, 4.000000, 4.000000, 4.000000, 4.000000, 4.000000
48.000000, 0.000000, 4141.538574, 4165.641113, 4147.692383, 4163.589844, 4158.974121, 4165.127930, 4161.025391, 4139.487305, 4158.974121, 4151.281738, 4158.974121, 4148.205078, 4120.512695, 4122.051270, 0.000000, 8213.000000, 8230.000000, 0.000000, 0.000000, 0.000000, 1.000000, 792.307701, 1545658523.881308, 4.000000, 4.000000, 4.000000, 4.000000, 4.000000, 4.000000, 4.000000, 4.000000, 4.000000, 4.000000, 4.000000, 4.000000, 4.000000, 4.000000, 4.000000, 4.000000
49.000000, 0.000000, 4156.410156, 4177.436035, 4157.948730, 4173.846191, 4174.871582, 4169.743652, 4171.281738, 4153.846191, 4167.179199, 4153.846191, 4174.358887, 4159.487305, 4132.307617, 4137.948730, 0.000000, 8209.000000, 8224.000000, 0.000000, 0.000000, 0.000000, 1.000000, 800.512825, 1545658523.889513, 4.000000, 4.000000, 4.000000, 4.000000, 4.000000, 4.000000, 4.000000, 4.000000, 4.000000, 4.000000, 4.000000, 4.000000, 4.000000, 4.000000, 4.000000, 4.000000
50.000000, 0.000000, 4170.769043, 4196.922852, 4171.281738, 4186.666504, 4183.076660, 4173.333008, 4184.102539, 4172.307617, 4185.641113, 4170.256348, 4185.127930, 4170.769043, 4143.589844, 4153.846191, 0.000000, 8209.000000, 8224.000000, 0.000000, 0.000000, 0.000000, 1.000000, 808.205132, 1545658523.897205, 4.000000, 4.000000, 4.000000, 4.000000, 4.000000, 4.000000, 4.000000, 4.000000, 4.000000, 4.000000, 4.000000, 4.000000, 4.000000, 4.000000, 4.000000, 4.000000
51.000000, 0.000000, 4151.281738, 4189.230469, 4161.025391, 4181.025391, 4166.153809, 4173.846191, 4192.307617, 4165.127930, 4177.948730, 4161.025391, 4166.153809, 4157.948730, 4126.153809, 4135.384277, 0.000000, 8207.000000, 8223.000000, 0.000000, 0.000000, 0.000000, 1.000000, 815.897446, 1545658523.904897, 4.000000, 4.000000, 4.000000, 4.000000, 4.000000, 4.000000, 4.000000, 4.000000, 4.000000, 4.000000, 4.000000, 4.000000, 4.000000, 4.000000, 4.000000, 4.000000
52.000000, 0.000000, 4152.820313, 4187.179199, 4164.102539, 4181.025391, 4174.358887, 4186.153809, 4200.000000, 4166.666504, 4178.461426, 4158.461426, 4168.205078, 4164.102539, 4129.230469, 4139.487305, 0.000000, 8207.000000, 8223.000000, 0.000000, 0.000000, 0.000000, 1.000000, 824.102570, 1545658523.913103, 4.000000, 4.000000, 4.000000, 4.000000, 4.000000, 4.000000, 4.000000, 4.000000, 4.000000, 4.000000, 4.000000, 4.000000, 4.000000, 4.000000, 4.000000, 4.000000
53.000000, 0.000000, 4186.666504, 4213.333008, 4188.717773, 4202.563965, 4203.589844, 4201.025391, 4203.589844, 4181.538574, 4203.076660, 4181.025391, 4199.487305, 4189.743652, 4156.922852, 4172.820313, 0.000000, 8199.000000, 8226.000000, 0.000000, 0.000000, 0.000000, 1.000000, 831.794876, 1545658523.920795, 4.000000, 4.000000, 4.000000, 4.000000, 4.000000, 4.000000, 4.000000, 4.000000, 4.000000, 4.000000, 4.000000, 4.000000, 4.000000, 4.000000, 4.000000, 4.000000
54.000000, 0.000000, 4196.410156, 4228.205078, 4194.871582, 4215.897461, 4208.205078, 4214.871582, 4212.820313, 4179.487305, 4207.179199, 4188.205078, 4208.717773, 4193.333008, 4164.615234, 4180.000000, 0.000000, 8199.000000, 8226.000000, 0.000000, 0.000000, 0.000000, 1.000000, 840.000000, 1545658523.929000, 4.000000, 4.000000, 4.000000, 4.000000, 4.000000, 4.000000, 4.000000, 4.000000, 4.000000, 4.000000, 4.000000, 4.000000, 4.000000, 4.000000, 4.000000, 4.000000
55.000000, 0.000000, 4190.256348, 4224.102539, 4192.307617, 4216.410156, 4204.102539, 4222.563965, 4217.436035, 4170.256348, 4193.333008, 4183.589844, 4201.538574, 4187.179199, 4165.641113, 4174.871582, 0.000000, 8187.000000, 8219.000000, 0.000000, 0.000000, 0.000000, 1.000000, 847.692307, 1545658523.936692, 4.000000, 4.000000, 4.000000, 4.000000, 4.000000, 4.000000, 4.000000, 4.000000, 4.000000, 4.000000, 4.000000, 4.000000, 4.000000, 4.000000, 4.000000, 4.000000
56.000000, 0.000000, 4201.538574, 4235.384277, 4207.179199, 4225.127930, 4217.948730, 4221.538574, 4213.333008, 4185.641113, 4208.717773, 4198.461426, 4216.922852, 4201.025391, 4189.230469, 4190.769043, 0.000000, 8187.000000, 8219.000000, 0.000000, 0.000000, 0.000000, 1.000000, 855.384613, 1545658523.944385, 4.000000, 4.000000, 4.000000, 4.000000, 4.000000, 4.000000, 4.000000, 4.000000, 4.000000, 4.000000, 4.000000, 4.000000, 4.000000, 4.000000, 4.000000, 4.000000
57.000000, 0.000000, 4223.076660, 4250.256348, 4226.666504, 4240.000000, 4227.179199, 4230.256348, 4228.205078, 4211.281738, 4244.102539, 4223.589844, 4243.076660, 4223.589844, 4223.076660, 4211.794922, 0.000000, 8193.000000, 8224.000000, 0.000000, 0.000000, 0.000000, 1.000000, 863.589752, 1545658523.952590, 4.000000, 4.000000, 4.000000, 4.000000, 4.000000, 4.000000, 4.000000, 4.000000, 4.000000, 4.000000, 4.000000, 4.000000, 4.000000, 4.000000, 4.000000, 4.000000
58.000000, 0.000000, 4216.922852, 4237.436035, 4217.436035, 4232.307617, 4209.743652, 4229.743652, 4233.846191, 4200.512695, 4235.384277, 4217.436035, 4235.897461, 4219.487305, 4234.871582, 4204.102539, 0.000000, 8193.000000, 8224.000000, 0.000000, 0.000000, 0.000000, 1.000000, 871.282059, 1545658523.960282, 4.000000, 4.000000, 4.000000, 4.000000, 4.000000, 4.000000, 4.000000, 4.000000, 4.000000, 4.000000, 4.000000, 4.000000, 4.000000, 4.000000, 4.000000, 4.000000
59.000000, 0.000000, 4191.794922, 4217.436035, 4195.384277, 4209.743652, 4188.717773, 4211.281738, 4211.281738, 4178.974121, 4200.512695, 4192.307617, 4209.743652, 4196.922852, 4232.820313, 4180.000000, 0.000000, 8202.000000, 8233.000000, 0.000000, 0.000000, 0.000000, 1.000000, 878.974365, 1545658523.967974, 4.000000, 4.000000, 4.000000, 4.000000, 4.000000, 4.000000, 4.000000, 4.000000, 4.000000, 4.000000, 4.000000, 4.000000, 4.000000, 4.000000, 4.000000, 4.000000
60.000000, 0.000000, 4183.076660, 4209.230469, 4190.256348, 4200.000000, 4183.076660, 4200.000000, 4198.974121, 4178.974121, 4206.153809, 4194.871582, 4201.025391, 4190.256348, 4240.000000, 4171.794922, 0.000000, 8202.000000, 8233.000000, 0.000000, 0.000000, 0.000000, 1.000000, 887.179489, 1545658523.976179, 4.000000, 4.000000, 4.000000, 4.000000, 4.000000, 4.000000, 4.000000, 4.000000, 4.000000, 4.000000, 4.000000, 4.000000, 4.000000, 4.000000, 4.000000, 4.000000
61.000000, 0.000000, 4181.025391, 4202.563965, 4191.794922, 4198.461426, 4181.538574, 4200.000000, 4203.589844, 4176.922852, 4213.846191, 4201.025391, 4198.461426, 4192.307617, 4249.230469, 4167.179199, 0.000000, 8201.000000, 8231.000000, 0.000000, 0.000000, 0.000000, 1.000000, 894.871796, 1545658523.983872, 4.000000, 4.000000, 4.000000, 4.000000, 4.000000, 4.000000, 4.000000, 4.000000, 4.000000, 4.000000, 4.000000, 4.000000, 4.000000, 4.000000, 4.000000, 4.000000
62.000000, 0.000000, 4181.538574, 4206.153809, 4190.256348, 4201.538574, 4185.641113, 4202.051270, 4206.153809, 4175.897461, 4194.358887, 4174.871582, 4186.666504, 4187.179199, 4257.436035, 4157.948730, 0.000000, 8201.000000, 8231.000000, 0.000000, 0.000000, 0.000000, 1.000000, 903.076920, 1545658523.992077, 4.000000, 4.000000, 4.000000, 4.000000, 4.000000, 4.000000, 4.000000, 4.000000, 4.000000, 4.000000, 4.000000, 4.000000, 4.000000, 4.000000, 4.000000, 4.000000
63.000000, 0.000000, 4184.102539, 4213.846191, 4190.256348, 4204.615234, 4183.076660, 4198.974121, 4195.384277, 4181.025391, 4189.743652, 4160.000000, 4182.563965, 4186.666504, 4270.256348, 4155.897461, 0.000000, 8201.000000, 8219.000000, 0.000000, 0.000000, 0.000000, 1.000000, 910.769241, 1545658523.999769, 4.000000, 4.000000, 4.000000, 4.000000, 4.000000, 4.000000, 4.000000, 4.000000, 4.000000, 4.000000, 4.000000, 4.000000, 4.000000, 4.000000, 4.000000, 4.000000
64.000000, 0.000000, 4173.333008, 4208.205078, 4183.589844, 4196.410156, 4175.384277, 4192.307617, 4182.563965, 4176.410156, 4196.922852, 4172.820313, 4186.153809, 4182.563965, 4273.846191, 4148.717773, 3331.000000, 8201.000000, 8219.000000, 0.000000, 0.000000, 0.000000, 1.000000, 918.461548, 1545658524.007461, 4.000000, 4.000000, 4.000000, 4.000000, 4.000000, 4.000000, 4.000000, 4.000000, 4.000000, 4.000000, 4.000000, 4.000000, 4.000000, 4.000000, 4.000000, 4.000000
65.000000, 0.000000, 4168.717773, 4209.230469, 4181.538574, 4196.922852, 4188.717773, 4203.076660, 4195.897461, 4167.179199, 4195.384277, 4180.000000, 4185.127930, 4180.000000, 4274.871582, 4144.102539, 3514.000000, 8209.000000, 8217.000000, 0.000000, 0.000000, 0.000000, 1.000000, 926.666672, 1545658524.015667, 4.000000, 4.000000, 4.000000, 4.000000, 4.000000, 4.000000, 4.000000, 4.000000, 4.000000, 4.000000, 4.000000, 4.000000, 4.000000, 4.000000, 4.000000, 4.000000
66.000000, 0.000000, 4184.102539, 4224.102539, 4194.871582, 4213.846191, 4205.127930, 4225.127930, 4225.127930, 4174.358887, 4202.051270, 4182.051270, 4188.205078, 4191.281738, 4284.102539, 4155.384277, 3317.000000, 8209.000000, 8217.000000, 0.000000, 0.000000, 0.000000, 1.000000, 934.358978, 1545658524.023359, 4.000000, 4.000000, 4.000000, 4.000000, 4.000000, 4.000000, 4.000000, 4.000000, 4.000000, 4.000000, 4.000000, 4.000000, 4.000000, 4.000000, 4.000000, 4.000000
67.000000, 0.000000, 4185.127930, 4217.436035, 4197.436035, 4212.307617, 4193.333008, 4218.461426, 4221.025391, 4178.461426, 4204.102539, 4181.025391, 4191.794922, 4195.897461, 4277.948730, 4157.948730, 3583.000000, 8208.000000, 8215.000000, 0.000000, 0.000000, 0.000000, 1.000000, 942.564117, 1545658524.031564, 4.000000, 4.000000, 4.000000, 4.000000, 4.000000, 4.000000, 4.000000, 4.000000, 4.000000, 4.000000, 4.000000, 4.000000, 4.000000, 4.000000, 4.000000, 4.000000
68.000000, 0.000000, 4169.743652, 4201.025391, 4180.000000, 4190.256348, 4180.000000, 4200.000000, 4194.871582, 4170.769043, 4190.256348, 4172.820313, 4184.615234, 4185.641113, 4264.102539, 4142.051270, 3372.000000, 8208.000000, 8215.000000, 0.000000, 0.000000, 0.000000, 1.000000, 950.256409, 1545658524.039256, 4.000000, 4.000000, 4.000000, 4.000000, 4.000000, 4.000000, 4.000000, 4.000000, 4.000000, 4.000000, 4.000000, 4.000000, 4.000000, 4.000000, 4.000000, 4.000000
69.000000, 0.000000, 4156.922852, 4191.281738, 4164.102539, 4174.358887, 4177.436035, 4192.307617, 4181.025391, 4160.512695, 4181.025391, 4165.127930, 4171.281738, 4172.307617, 4257.948730, 4128.205078, 3480.000000, 8215.000000, 8218.000000, 0.000000, 0.000000, 0.000000, 1.000000, 957.948730, 1545658524.046949, 4.000000, 4.000000, 4.000000, 4.000000, 4.000000, 4.000000, 4.000000, 4.000000, 4.000000, 4.000000, 4.000000, 4.000000, 4.000000, 4.000000, 4.000000, 4.000000
70.000000, 0.000000, 4131.281738, 4164.615234, 4141.538574, 4153.333008, 4153.846191, 4166.666504, 4161.025391, 4136.410156, 4154.871582, 4140.000000, 4144.615234, 4148.205078, 4227.692383, 4107.179199, 3403.000000, 8215.000000, 8218.000000, 0.000000, 0.000000, 0.000000, 1.000000, 966.153839, 1545658524.055154, 4.000000, 4.000000, 4.000000, 4.000000, 4.000000, 4.000000, 4.000000, 4.000000, 4.000000, 4.000000, 4.000000, 4.000000, 4.000000, 4.000000, 4.000000, 4.000000
71.000000, 0.000000, 4112.307617, 4134.871582, 4122.563965, 4131.794922, 4130.769043, 4135.897461, 4145.127930, 4113.846191, 4120.000000, 4111.281738, 4117.948730, 4129.230469, 4191.281738, 4085.640869, 3175.000000, 8208.000000, 8223.000000, 0.000000, 0.000000, 0.000000, 1.000000, 973.846161, 1545658524.062846, 4.000000, 4.000000, 4.000000, 4.000000, 4.000000, 4.000000, 4.000000, 4.000000, 4.000000, 4.000000, 4.000000, 4.000000, 4.000000, 4.000000, 4.000000, 4.000000
72.000000, 0.000000, 4128.717773, 4148.205078, 4138.974121, 4146.153809, 4143.589844, 4148.205078, 4158.461426, 4124.102539, 4138.461426, 4132.820313, 4128.717773, 4147.692383, 4204.615234, 4100.000000, 3402.000000, 8208.000000, 8223.000000, 0.000000, 0.000000, 0.000000, 1.000000, 981.538452, 1545658524.070539, 4.000000, 4.000000, 4.000000, 4.000000, 4.000000, 4.000000, 4.000000, 4.000000, 4.000000, 4.000000, 4.000000, 4.000000, 4.000000, 4.000000, 4.000000, 4.000000
73.000000, 0.000000, 4123.076660, 4148.717773, 4135.384277, 4145.127930, 4133.846191, 4149.743652, 4148.205078, 4132.307617, 4151.794922, 4143.076660, 4130.769043, 4146.666504, 4206.666504, 4098.461426, 3213.000000, 8209.000000, 8223.000000, 0.000000, 0.000000, 0.000000, 1.000000, 989.743591, 1545658524.078744, 4.000000, 4.000000, 4.000000, 4.000000, 4.000000, 4.000000, 4.000000, 4.000000, 4.000000, 4.000000, 4.000000, 4.000000, 4.000000, 4.000000, 4.000000, 4.000000
